06/18/2020 10:01:38
Tempo T_f_e T_f_s AR AR T_q_e T_q_s Corrente_P_f Corrente_P_q Corrente_P_RESERVA Corrente_eletromag_f Corrente_eletromag_q AR AR T_1 T_2 T_3 T_4 T_5 T_6 T_7 T_8 T_9 T_10 T_11 T_12 T_13 T_14 T_15 T_16 Velocidade_f_(m/s) Vazao_f_(L/s) q_f_(W) AR AR AR Velocidade_q_(m/s) Vazao_q_(L/s) q_q_(W) DeltaP_q_(Pa) DeltaP_f_(Pa) DeltaP_f_(Psi) AR
0,011000  	17,210257  	34,470238  	22,278496  	1256,670793  	70,592873  	63,194845  	0,004495  	0,006315  	0,003964  	0,004087  	0,004243  	0,000000  	-0,000000  	23,294735  	20,048528  	21,061961  	22,674618  	28,118054  	26,606130  	28,086224  	29,109735  	34,990786  	33,632427  	37,157005  	57,442388  	24,454311  	23,829441  	25,288914  	62,049684  	0,077358  	0,039198  	-2830,090251  	25621,907044  	-0,018553  	-0,049997  	0,218826  	0,110881  	-3,433939  	4968,318807  	11592,757603  	1,681387  	-0,047948  
2,616000  	17,227792  	34,473505  	22,280953  	1256,670793  	70,600786  	63,202989  	0,004485  	0,006327  	0,003964  	0,004066  	0,004221  	-0,000001  	-0,000000  	23,290563  	20,067918  	21,063654  	22,675199  	28,112671  	26,613026  	28,078538  	29,110093  	34,984780  	33,629488  	37,166463  	57,435098  	24,458787  	23,841457  	25,290288  	62,060924  	0,060366  	0,030588  	-2206,595538  	25626,452541  	-0,018557  	-0,050007  	0,200905  	0,101800  	-3,152610  	4993,946043  	11381,814501  	1,650793  	-0,047957  
3,599000  	17,237909  	34,463706  	22,283716  	357,439972  	70,605521  	63,198979  	0,004487  	0,006322  	0,003965  	0,004090  	0,004201  	0,000001  	-0,000000  	23,304438  	20,058944  	21,064782  	22,677980  	28,121538  	26,616725  	28,089242  	29,114750  	34,995244  	33,629148  	37,163074  	57,431066  	24,478286  	23,858306  	25,297974  	62,059940  	0,079787  	0,040429  	-2913,138076  	12630,035359  	-0,036567  	-0,049992  	0,185539  	0,094014  	-2,914921  	4982,573847  	11427,358553  	1,657398  	-0,047944  
4,601000  	17,246493  	34,456496  	22,285189  	956,927186  	70,609571  	63,195125  	0,004495  	0,006330  	0,003966  	0,004103  	0,004234  	0,000001  	-0,000000  	23,287293  	20,063324  	21,058415  	22,674008  	28,120363  	26,624450  	28,086285  	29,117235  	34,996837  	33,641066  	37,156032  	57,415030  	24,479468  	23,857401  	25,287995  	62,046897  	0,090079  	0,045643  	-3285,890435  	22580,122363  	-0,022196  	-0,049990  	0,211643  	0,107241  	-3,328583  	5000,437569  	11588,775146  	1,680810  	-0,047943  
5,601000  	17,254647  	34,457975  	22,286295  	956,927186  	70,612157  	63,191830  	0,004498  	0,006314  	0,003963  	0,004081  	0,004225  	-0,000000  	-0,000000  	23,307569  	20,088243  	21,069197  	22,676342  	28,133035  	26,626314  	28,097033  	29,134692  	35,004601  	33,657680  	37,165923  	57,434862  	24,492080  	23,881214  	25,299601  	62,064052  	0,072131  	0,036549  	-2630,174045  	22585,706250  	-0,022202  	-0,050004  	0,204328  	0,103534  	-3,216085  	4965,644660  	11648,949783  	1,689537  	-0,047955  
6,601000  	17,243672  	34,454832  	22,287093  	357,439972  	70,609789  	63,186111  	0,004491  	0,006335  	0,003965  	0,004100  	0,004252  	-0,000001  	-0,000000  	23,311340  	20,077830  	21,065926  	22,666605  	28,122868  	26,621119  	28,091257  	29,137107  	35,007588  	33,647420  	37,174658  	57,431066  	24,492206  	23,869666  	25,293713  	62,055025  	0,087336  	0,044254  	-3186,070676  	12633,558368  	-0,036577  	-0,050008  	0,225884  	0,114457  	-3,556985  	5010,453592  	11502,340303  	1,668273  	-0,047958  
7,599000  	17,239166  	34,448269  	22,288014  	1256,670793  	70,609976  	63,193477  	0,004483  	0,006342  	0,003963  	0,004107  	0,004226  	-0,000001  	-0,000000  	23,299460  	20,069520  	21,069995  	22,664019  	28,117076  	26,622080  	28,085979  	29,127277  	34,999448  	33,640651  	37,170521  	57,438037  	24,489090  	23,856944  	25,293810  	62,042918  	0,093453  	0,047354  	-3408,824640  	25627,183752  	-0,018557  	-0,050009  	0,205351  	0,104053  	-3,230527  	5025,284492  	11340,733060  	1,644834  	-0,047959  
8,601000  	17,244439  	34,447529  	22,288444  	1256,670793  	70,609415  	63,197518  	0,004494  	0,006318  	0,003963  	0,004074  	0,004245  	0,000001  	-0,000000  	23,293515  	20,054496  	21,075086  	22,662558  	28,121914  	26,623892  	28,073603  	29,109557  	35,002061  	33,635635  	37,173463  	57,430850  	24,485975  	23,836427  	25,288373  	62,049149  	0,066706  	0,033801  	-2432,340716  	25619,108878  	-0,018552  	-0,049991  	0,220249  	0,111602  	-3,462737  	4974,987902  	11561,745281  	1,676889  	-0,047944  
9,601000  	17,245266  	34,451504  	22,290102  	1256,670793  	70,611440  	63,195373  	0,004498  	0,006326  	0,003966  	0,004096  	0,004215  	-0,000000  	-0,000000  	23,301737  	20,058488  	21,067464  	22,665172  	28,126658  	26,615369  	28,077934  	29,109352  	34,997324  	33,628705  	37,164829  	57,430980  	24,491407  	23,827527  	25,288866  	62,048605  	0,084486  	0,042810  	-3081,221992  	25624,436442  	-0,018555  	-0,050003  	0,196565  	0,099601  	-3,092126  	4991,511721  	11655,057629  	1,690423  	-0,047954  
10,600000  	17,236315  	34,448299  	22,290409  	1256,670793  	70,614867  	63,179148  	0,004493  	0,006321  	0,003963  	0,004095  	0,004234  	-0,000001  	-0,000000  	23,293298  	20,067002  	21,062440  	22,668069  	28,120121  	26,617347  	28,080277  	29,113335  	34,987320  	33,632525  	37,160357  	57,429018  	24,502684  	23,830314  	25,291870  	62,043274  	0,083780  	0,042452  	-3056,481490  	25629,548955  	-0,018559  	-0,050014  	0,211278  	0,107056  	-3,332370  	4979,967615  	11544,876329  	1,674443  	-0,047963  
11,601000  	17,230061  	34,443400  	22,290869  	1256,670793  	70,612998  	63,184401  	0,004479  	0,006326  	0,003962  	0,004119  	0,004257  	0,000001  	-0,000000  	23,297711  	20,072733  	21,063384  	22,668318  	28,122411  	26,627798  	28,087761  	29,123922  	34,990911  	33,642161  	37,168824  	57,430485  	24,510116  	23,834065  	25,300819  	62,052650  	0,102787  	0,052083  	-3750,192797  	25617,506462  	-0,018550  	-0,049988  	0,229760  	0,116421  	-3,620413  	4992,497194  	11256,564828  	1,632627  	-0,047941  
12,599000  	17,225891  	34,445434  	22,290133  	1256,670793  	70,608387  	63,188069  	0,004491  	0,006327  	0,003963  	0,004091  	0,004245  	-0,000000  	-0,000000  	23,304369  	20,076018  	21,061560  	22,664297  	28,122807  	26,627011  	28,096358  	29,132737  	34,999403  	33,641933  	37,171710  	57,432377  	24,513868  	23,841218  	25,305878  	62,057643  	0,080642  	0,040862  	-2943,288126  	25623,769333  	-0,018555  	-0,050001  	0,219913  	0,111432  	-3,461385  	4993,873884  	11495,646386  	1,667303  	-0,047953  
13,601000  	17,219607  	34,457944  	22,291637  	57,696365  	70,603994  	63,201403  	0,004500  	0,006322  	0,003963  	0,004071  	0,004242  	-0,000000  	-0,000000  	23,309286  	20,076076  	21,068290  	22,665978  	28,118676  	26,623798  	28,094824  	29,129142  	35,006695  	33,646900  	37,171449  	57,435571  	24,520277  	23,851843  	25,304562  	62,058202  	0,064040  	0,032450  	-2339,906920  	1925,570254  	-0,054077  	-0,050001  	0,218269  	0,110598  	-3,427307  	4982,699772  	11700,834697  	1,697063  	-0,047953  
14,601000  	17,218810  	34,457636  	22,292681  	1256,670793  	70,603122  	63,198606  	0,004495  	0,006316  	0,003963  	0,004091  	0,004245  	-0,000000  	-0,000000  	23,315102  	20,070788  	21,073243  	22,668373  	28,123376  	26,626058  	28,089354  	29,126338  	35,005552  	33,656518  	37,176945  	57,442712  	24,518306  	23,857518  	25,300932  	62,063176  	0,080340  	0,040709  	-2935,548704  	25623,896677  	-0,018555  	-0,050002  	0,220288  	0,111621  	-3,459901  	4969,968571  	11591,684317  	1,681232  	-0,047953  
15,600000  	17,212464  	34,451350  	22,292773  	1256,670793  	70,604586  	63,190400  	0,004479  	0,006329  	0,003965  	0,004080  	0,004230  	0,000000  	-0,000000  	23,311346  	20,063008  	21,069082  	22,667204  	28,123952  	26,623050  	28,083691  	29,118762  	34,995467  	33,647830  	37,174019  	57,445861  	24,513204  	23,855166  	25,300538  	62,062865  	0,071750  	0,036356  	-2621,691135  	25621,461916  	-0,018553  	-0,049997  	0,208393  	0,105594  	-3,277351  	4997,361593  	11244,582153  	1,630889  	-0,047948  
16,600000  	17,205229  	34,446235  	22,293510  	57,696365  	70,602343  	63,190151  	0,004487  	0,006330  	0,003966  	0,004142  	0,004281  	-0,000000  	-0,000000  	23,302194  	20,059483  	21,069337  	22,668808  	28,123543  	26,619877  	28,078057  	29,109750  	34,993452  	33,634776  	37,164534  	57,437898  	24,514498  	23,859877  	25,299248  	62,057358  	0,122023  	0,061830  	-4459,193710  	1925,493789  	-0,054077  	-0,050002  	0,248624  	0,125979  	-3,909001  	5001,143600  	11420,318643  	1,656377  	-0,047953  
17,600000  	17,215591  	34,450333  	22,292926  	1256,670793  	70,599072  	63,187603  	0,004499  	0,006322  	0,003964  	0,004085  	0,004238  	-0,000000  	-0,000001  	23,296770  	20,064108  	21,070124  	22,672645  	28,131031  	26,626575  	28,081241  	29,116542  	35,000480  	33,633851  	37,161222  	57,430212  	24,513611  	23,879160  	25,298666  	62,056361  	0,075567  	0,038290  	-2760,497215  	25623,774237  	-0,018555  	-0,050002  	0,214602  	0,108741  	-3,373768  	4983,564979  	11671,905398  	1,692867  	-0,047953  
18,604000  	17,221232  	34,453846  	22,290532  	1256,670793  	70,597016  	63,196181  	0,004497  	0,006334  	0,003962  	0,004108  	0,004226  	-0,000001  	-0,000000  	23,298366  	20,072899  	21,066536  	22,675497  	28,125553  	26,632072  	28,092397  	29,120480  	35,000521  	33,636381  	37,160316  	57,431908  	24,518380  	23,895089  	25,306162  	62,059991  	0,094429  	0,047848  	-3449,102270  	25627,276432  	-0,018557  	-0,050009  	0,205261  	0,104007  	-3,222294  	5008,462131  	11625,860008  	1,686188  	-0,047959  
19,600000  	17,233740  	34,448484  	22,291637  	1256,670793  	70,596081  	63,193975  	0,004483  	0,006315  	0,003962  	0,004107  	0,004252  	0,000000  	-0,000000  	23,303077  	20,078939  	21,065349  	22,671770  	28,127667  	26,630569  	28,098044  	29,128079  	34,996562  	33,651260  	37,170024  	57,431174  	24,530410  	23,906839  	25,301249  	62,061807  	0,093145  	0,047197  	-3398,698914  	25620,446186  	-0,018553  	-0,049994  	0,225993  	0,114512  	-3,548353  	4968,809774  	11327,966604  	1,642983  	-0,047947  
20,600000  	17,252502  	34,439549  	22,292312  	1256,670793  	70,593527  	63,197394  	0,004489  	0,006334  	0,003964  	0,004078  	0,004259  	-0,000001  	-0,000000  	23,302793  	20,084715  	21,073139  	22,668620  	28,134524  	26,622106  	28,092849  	29,134213  	35,000578  	33,653414  	37,171480  	57,440482  	24,538529  	23,919728  	25,301780  	62,058071  	0,069817  	0,035377  	-2543,386016  	25629,387636  	-0,018559  	-0,050014  	0,231710  	0,117409  	-3,635193  	5008,146610  	11451,945280  	1,660964  	-0,047963  
21,602000  	17,248148  	34,442353  	22,292343  	57,696365  	70,590224  	63,195995  	0,004497  	0,006331  	0,003960  	0,004072  	0,004254  	0,000000  	-0,000000  	23,290527  	20,065483  	21,070922  	22,650328  	28,117850  	26,608983  	28,076239  	29,122536  	34,992778  	33,641650  	37,166077  	57,434115  	24,522474  	23,919023  	25,290662  	62,056139  	0,065015  	0,032944  	-2369,454215  	1925,407954  	-0,054073  	-0,049998  	0,227080  	0,115063  	-3,561636  	5002,036397  	11629,898954  	1,686774  	-0,047950  
22,612000  	17,227424  	34,451288  	22,291913  	657,183579  	70,592281  	63,193260  	0,004495  	0,006324  	0,003963  	0,004089  	0,004218  	-0,000000  	-0,000000  	23,296845  	20,065555  	21,071656  	22,662859  	28,122186  	26,610713  	28,075317  	29,137713  	34,995294  	33,635970  	37,174802  	57,443576  	24,526024  	23,920062  	25,302326  	62,056575  	0,078996  	0,040028  	-2883,929897  	18569,212477  	-0,027630  	-0,050002  	0,198861  	0,100764  	-3,121052  	4988,369245  	11601,026143  	1,682587  	-0,047953  
23,602000  	17,214273  	34,448145  	22,292650  	657,183579  	70,595614  	63,183997  	0,004490  	0,006330  	0,003966  	0,004073  	0,004243  	0,000000  	-0,000000  	23,296262  	20,060300  	21,054422  	22,672720  	28,126506  	26,613365  	28,068030  	29,122150  	34,991415  	33,625634  	37,159549  	57,439736  	24,529391  	23,925204  	25,303339  	62,044964  	0,065759  	0,033320  	-2402,083089  	18566,880283  	-0,027626  	-0,049995  	0,218800  	0,110868  	-3,439830  	5000,748138  	11489,884534  	1,666467  	-0,047947  
24,600000  	17,198515  	34,439826  	22,291852  	1256,670793  	70,599103  	63,192327  	0,004484  	0,006326  	0,003964  	0,004092  	0,004289  	-0,000000  	-0,000000  	23,300384  	20,071457  	21,059600  	22,678464  	28,128983  	26,625894  	28,081959  	29,114238  	34,989616  	33,631612  	37,165556  	57,438896  	24,543388  	23,928331  	25,312918  	62,045848  	0,081283  	0,041187  	-2970,464474  	25624,054961  	-0,018555  	-0,050002  	0,255051  	0,129236  	-4,007119  	4992,475970  	11354,466887  	1,646826  	-0,047953  
25,604000  	17,195971  	34,440843  	22,290747  	956,927186  	70,601471  	63,187603  	0,004490  	0,006323  	0,003961  	0,004085  	0,004221  	-0,000000  	-0,000000  	23,300520  	20,070797  	21,060131  	22,677801  	28,131010  	26,629715  	28,093015  	29,126823  	35,000158  	33,643878  	37,161922  	57,432709  	24,549320  	23,937147  	25,302630  	62,063428  	0,075522  	0,038267  	-2760,483967  	22584,048722  	-0,022200  	-0,050001  	0,200951  	0,101823  	-3,160180  	4985,791312  	11480,119042  	1,665050  	-0,047952  
26,601000  	17,212954  	34,450518  	22,290562  	357,439972  	70,602406  	63,186857  	0,004499  	0,006339  	0,003965  	0,004069  	0,004255  	0,000000  	-0,000000  	23,289198  	20,071008  	21,062839  	22,662089  	28,123986  	26,620417  	28,089912  	29,114513  	34,985941  	33,635354  	37,158589  	57,431366  	24,552372  	23,927788  	25,293283  	62,047878  	0,062850  	0,031846  	-2296,306583  	12630,566486  	-0,036569  	-0,049996  	0,227846  	0,115451  	-3,583950  	5019,000248  	11685,999340  	1,694911  	-0,047948  
27,601000  	17,217001  	34,452829  	22,290654  	1256,670793  	70,603776  	63,192016  	0,004496  	0,006305  	0,003966  	0,004108  	0,004243  	0,000001  	-0,000000  	23,297156  	20,078061  	21,069524  	22,659056  	28,123958  	26,625587  	28,088865  	29,123905  	34,999623  	33,651341  	37,162517  	57,432764  	24,556115  	23,942385  	25,303480  	62,053983  	0,093981  	0,047621  	-3433,411802  	25619,384185  	-0,018552  	-0,049992  	0,218985  	0,110961  	-3,442807  	4947,377694  	11613,383056  	1,684379  	-0,047944  
28,599000  	17,202960  	34,447159  	22,290409  	57,696365  	70,604462  	63,192576  	0,004478  	0,006335  	0,003961  	0,004128  	0,004247  	0,000001  	-0,000000  	23,307877  	20,061235  	21,068044  	22,661129  	28,116086  	26,607975  	28,077460  	29,120011  	35,001014  	33,643510  	37,170439  	57,439708  	24,548846  	23,927576  	25,298430  	62,051440  	0,110047  	0,055762  	-4022,290850  	1925,275427  	-0,054066  	-0,049991  	0,222071  	0,112525  	-3,491386  	5010,259751  	11235,063799  	1,629508  	-0,047943  
29,599000  	17,191648  	34,443708  	22,289948  	57,696365  	70,605054  	63,189592  	0,004490  	0,006342  	0,003965  	0,004042  	0,004241  	0,000000  	-0,000000  	23,295330  	20,057520  	21,068537  	22,658153  	28,119482  	26,608695  	28,078013  	29,116171  	34,994472  	33,644994  	37,165795  	57,435509  	24,549879  	23,933606  	25,291918  	62,050363  	0,040300  	0,020420  	-1473,679153  	1925,435780  	-0,054070  	-0,049995  	0,217363  	0,110139  	-3,419006  	5026,097348  	11488,895981  	1,666323  	-0,047947  
30,602000  	17,186559  	34,447283  	22,288229  	1256,670793  	70,607234  	63,184557  	0,004500  	0,006322  	0,003964  	0,004091  	0,004235  	-0,000000  	-0,000000  	23,287154  	20,049581  	21,053048  	22,656610  	28,112869  	26,611120  	28,068254  	29,107505  	34,979767  	33,621137  	37,166158  	57,432343  	24,537601  	23,927675  	25,291565  	62,049087  	0,080517  	0,040798  	-2945,760611  	25624,257128  	-0,018555  	-0,050002  	0,212736  	0,107795  	-3,349484  	4983,582665  	11704,901887  	1,697652  	-0,047953  
31,601000  	17,192261  	34,448115  	22,287768  	357,439972  	70,610287  	63,195249  	0,004498  	0,006328  	0,003961  	0,004117  	0,004251  	0,000000  	-0,000000  	23,294511  	20,052399  	21,054627  	22,658381  	28,117335  	26,615276  	28,074419  	29,106370  	34,979186  	33,629396  	37,150370  	57,443860  	24,546575  	23,937263  	25,291014  	62,058723  	0,101456  	0,051408  	-3710,785787  	12631,414476  	-0,036571  	-0,049999  	0,225015  	0,114017  	-3,539170  	4995,549116  	11655,961449  	1,690554  	-0,047950  
32,602000  	17,203727  	34,441151  	22,288444  	956,927186  	70,614774  	63,191768  	0,004480  	0,006343  	0,003966  	0,004051  	0,004247  	-0,000001  	-0,000000  	23,299877  	20,066565  	21,056553  	22,668848  	28,132091  	26,623463  	28,087158  	29,121002  	34,991435  	33,639939  	37,162097  	57,441609  	24,566120  	23,936281  	25,301027  	62,062542  	0,047921  	0,024282  	-1750,850002  	22588,498024  	-0,022205  	-0,050011  	0,222182  	0,112581  	-3,498371  	5028,305995  	11258,245368  	1,632870  	-0,047961  
33,599000  	17,217522  	34,432831  	22,287431  	-242,047242  	70,620163  	63,180423  	0,004488  	0,006317  	0,003963  	0,004111  	0,004222  	-0,000000  	-0,000000  	23,294571  	20,070521  	21,063598  	22,662643  	28,123167  	26,632397  	28,096871  	29,131699  	34,996397  	33,641037  	37,157948  	57,438221  	24,559762  	23,931812  	25,295808  	62,056514  	0,096385  	0,048839  	-3517,029720  	-27019,826517  	-0,103720  	-0,050003  	0,202288  	0,102501  	-3,192296  	4971,825617  	11446,924843  	1,660236  	-0,047954  
34,600000  	17,226106  	34,430674  	22,286632  	357,439972  	70,622905  	63,189747  	0,004498  	0,006327  	0,003964  	0,004093  	0,004264  	-0,000001  	-0,000000  	23,301467  	20,063424  	21,068048  	22,657545  	28,117764  	26,625232  	28,093635  	29,134903  	35,003586  	33,651255  	37,160543  	57,448490  	24,556683  	23,933109  	25,300977  	62,062673  	0,081832  	0,041465  	-2984,142186  	12633,637935  	-0,036578  	-0,050008  	0,234955  	0,119054  	-3,704549  	4993,777671  	11655,721372  	1,690519  	-0,047959  
35,602000  	17,240453  	34,432431  	22,285343  	1256,670793  	70,622780  	63,202118  	0,004497  	0,006328  	0,003965  	0,004093  	0,004255  	-0,000001  	-0,000000  	23,302944  	20,059874  	21,067876  	22,664206  	28,116737  	26,621021  	28,089724  	29,135467  	35,005701  	33,653821  	37,167022  	57,451396  	24,555874  	23,926389  	25,304734  	62,062980  	0,081880  	0,041489  	-2983,686923  	25628,405775  	-0,018558  	-0,050011  	0,228012  	0,115535  	-3,589032  	4996,751775  	11627,738259  	1,686461  	-0,047961  
36,601000  	17,252103  	34,432307  	22,283194  	1256,670793  	70,618605  	63,196896  	0,004489  	0,006320  	0,003961  	0,004101  	0,004240  	0,000000  	-0,000000  	23,299288  	20,062139  	21,059508  	22,655628  	28,116960  	26,610965  	28,083508  	29,124955  	34,994223  	33,633031  	37,168380  	57,441373  	24,555255  	23,920228  	25,299614  	62,056709  	0,088740  	0,044965  	-3231,458436  	25622,872735  	-0,018554  	-0,049999  	0,216600  	0,109753  	-3,409875  	4978,380106  	11462,854669  	1,662547  	-0,047951  
37,601000  	17,247842  	34,425898  	22,283654  	-242,047242  	70,618045  	63,196990  	0,004485  	0,006328  	0,003964  	0,004061  	0,004243  	-0,000000  	-0,000000  	23,299219  	20,061318  	21,060885  	22,662217  	28,124068  	26,616865  	28,078499  	29,117858  	34,993471  	33,627337  	37,165929  	57,440172  	24,559891  	23,918273  	25,307208  	62,061376  	0,055914  	0,028332  	-2035,856382  	-27019,062374  	-0,103718  	-0,050002  	0,219016  	0,110977  	-3,447614  	4995,263308  	11385,641614  	1,651348  	-0,047953  
