06/30/2020 15:04:14
Tempo T_f_e T_f_s AR AR T_q_e T_q_s Corrente_P_f Corrente_P_q Corrente_P_RESERVA Corrente_eletromag_f Corrente_eletromag_q AR AR T_1 T_2 T_3 T_4 T_5 T_6 T_7 T_8 T_9 T_10 T_11 T_12 T_13 T_14 T_15 T_16 Velocidade_f_(m/s) Vazao_f_(L/s) q_f_(W) AR AR AR Velocidade_q_(m/s) Vazao_q_(L/s) q_q_(W) DeltaP_q_(Pa) DeltaP_f_(Pa) DeltaP_f_(Psi) AR
0,015000  	9,714348  	68,348885  	57,725912  	57,696365  	80,441165  	77,601431  	0,003997  	0,011076  	0,003961  	0,004011  	0,004423  	0,000002  	-0,000000  	26,411841  	20,742973  	23,115473  	35,645615  	52,813915  	49,654163  	51,379886  	57,234045  	68,435601  	66,166649  	68,191508  	74,380622  	25,165464  	23,203448  	24,415235  	76,451427  	0,015938  	0,008076  	-1982,612441  	-1,524506  	-0,051162  	-0,049981  	0,361161  	0,183003  	-2,180076  	15235,187527  	865,784719  	0,125571  	-0,047935  
2,581000  	9,712818  	68,350940  	1256,818530  	1256,670793  	80,445227  	77,600556  	0,003997  	0,011083  	0,003963  	0,003981  	0,004447  	0,000000  	-0,000000  	26,416473  	20,748963  	23,102218  	35,653998  	52,815914  	49,654152  	51,380308  	57,234313  	68,443821  	66,167776  	68,192980  	74,388323  	25,157903  	23,172141  	24,426278  	76,452684  	-0,008423  	-0,004268  	1047,879223  	-1,993365  	-0,011067  	-0,049995  	0,379985  	0,192541  	-2,297693  	15250,064412  	852,170931  	0,123597  	-0,047947  
3,579000  	9,712818  	68,354955  	1256,818530  	1256,670793  	80,446977  	77,595874  	0,003993  	0,011075  	0,003963  	0,004026  	0,004464  	-0,000000  	-0,000000  	26,416996  	20,752313  	23,123977  	35,660012  	52,819098  	49,662574  	51,380856  	57,239279  	68,439006  	66,168227  	68,208326  	74,381892  	25,168240  	23,145586  	24,423597  	76,458747  	0,027888  	0,014131  	-3469,705088  	-1,993623  	-0,011069  	-0,050002  	0,393945  	0,199615  	-2,387491  	15233,291572  	772,027522  	0,111973  	-0,047953  
4,577000  	9,712146  	68,350099  	57,725912  	1256,670793  	80,448101  	77,592502  	0,003996  	0,011056  	0,003962  	0,004001  	0,004447  	0,000001  	-0,000000  	26,417248  	20,756067  	23,125734  	35,668161  	52,826723  	49,676835  	51,391240  	57,245267  	68,438380  	66,174590  	68,207241  	74,380861  	25,167694  	23,128699  	24,422257  	76,461386  	0,007410  	0,003755  	-921,836751  	24486,286932  	-0,018198  	-0,049989  	0,380109  	0,192604  	-2,307269  	15192,817163  	835,499690  	0,121179  	-0,047942  
5,580000  	9,711411  	68,348512  	1256,818530  	1256,670793  	80,449851  	77,598808  	0,003996  	0,011068  	0,003963  	0,004000  	0,004463  	0,000001  	-0,000000  	26,408939  	20,753800  	23,110989  	35,656382  	52,817725  	49,662922  	51,383350  	57,241334  	68,429922  	66,163815  	68,204638  	74,371575  	25,163214  	23,091744  	24,426553  	76,458087  	0,006844  	0,003468  	-851,424439  	-1,993306  	-0,011067  	-0,049993  	0,393094  	0,199184  	-2,382285  	15218,080772  	846,945722  	0,122839  	-0,047945  
6,578000  	9,711595  	68,354426  	1256,818530  	1256,670793  	80,450164  	77,608111  	0,003994  	0,011047  	0,003961  	0,003974  	0,004441  	-0,000000  	-0,000000  	26,427143  	20,758539  	23,121566  	35,665155  	52,831391  	49,666856  	51,389047  	57,253815  	68,433221  	66,175467  	68,209803  	74,387762  	25,178681  	23,072009  	24,440738  	76,467294  	-0,014111  	-0,007150  	1755,592221  	-1,993637  	-0,011069  	-0,050002  	0,375323  	0,190179  	-2,267418  	15171,874635  	800,914455  	0,116163  	-0,047953  
7,578000  	9,711228  	68,362177  	357,499067  	1256,670793  	80,446195  	77,606613  	0,003997  	0,011069  	0,003963  	0,003979  	0,004496  	0,000001  	-0,000000  	26,409088  	20,755386  	23,112401  	35,657331  	52,825825  	49,663376  	51,386734  	57,246016  	68,427090  	66,165275  	68,207713  	74,384511  	25,162507  	23,041432  	24,426620  	76,446383  	-0,010496  	-0,005318  	1306,001811  	16228,176790  	-0,015673  	-0,049990  	0,419446  	0,212536  	-2,531770  	15218,859670  	857,043085  	0,124304  	-0,047943  
8,579000  	9,709331  	68,356699  	-242,047242  	1256,670793  	80,445508  	77,601680  	0,003994  	0,011062  	0,003962  	0,004020  	0,004490  	0,000001  	-0,000000  	26,401950  	20,752934  	23,115905  	35,656081  	52,815508  	49,649662  	51,382128  	57,241334  	68,420867  	66,155124  	68,215422  	74,376373  	25,167182  	23,028093  	24,419391  	76,448288  	0,022489  	0,011396  	-2798,232626  	35504,453865  	-0,021694  	-0,049993  	0,414223  	0,209890  	-2,503980  	15205,599300  	804,374390  	0,116665  	-0,047945  
9,580000  	9,707833  	68,349695  	1256,818530  	956,927186  	80,445383  	77,597840  	0,003994  	0,011046  	0,003962  	0,003981  	0,004426  	0,000000  	-0,000000  	26,405255  	20,751866  	23,123611  	35,656837  	52,814740  	49,656450  	51,389864  	57,239597  	68,425531  	66,157515  	68,208671  	74,383920  	25,164297  	23,015755  	24,420473  	76,450858  	-0,008565  	-0,004340  	1065,630680  	-4420,507024  	-0,012270  	-0,049998  	0,363967  	0,184425  	-2,203057  	15169,887419  	787,809066  	0,114262  	-0,047950  
10,579000  	9,707649  	68,342224  	1256,818530  	357,439972  	80,445383  	77,589599  	0,003998  	0,011068  	0,003961  	0,004003  	0,004440  	0,000001  	-0,000000  	26,411167  	20,755363  	23,120928  	35,657912  	52,827912  	49,658487  	51,384972  	57,243963  	68,422788  	66,158210  	68,211239  	74,386557  	25,163768  	23,008645  	24,428141  	76,453424  	0,009384  	0,004755  	-1167,310981  	-16230,698077  	-0,015672  	-0,049988  	0,374541  	0,189783  	-2,273620  	15218,087847  	878,614726  	0,127432  	-0,047941  
11,579000  	9,708934  	68,331858  	1256,818530  	357,439972  	80,444008  	77,587101  	0,003994  	0,011090  	0,003965  	0,004000  	0,004491  	-0,000000  	-0,000000  	26,413790  	20,752804  	23,116442  	35,655479  	52,824187  	49,652958  	51,382696  	57,241460  	68,417689  	66,155313  	68,213303  	74,375060  	25,165312  	22,995441  	24,426529  	76,452533  	0,006816  	0,003454  	-847,782427  	-16234,331130  	-0,015675  	-0,050000  	0,415427  	0,210500  	-2,522801  	15264,351287  	791,960988  	0,114864  	-0,047952  
12,578000  	9,707894  	68,328061  	1256,818530  	956,927186  	80,443696  	77,591097  	0,003994  	0,011081  	0,003961  	0,003990  	0,004438  	-0,000000  	-0,000000  	26,401480  	20,744969  	23,107148  	35,652285  	52,823433  	49,650628  	51,385203  	57,238551  	68,415901  	66,154689  	68,216357  	74,373566  	25,162869  	22,982843  	24,421517  	76,450090  	-0,001521  	-0,000771  	189,203281  	-4420,731687  	-0,012271  	-0,050001  	0,372944  	0,188974  	-2,261400  	15246,474830  	797,616924  	0,115685  	-0,047952  
13,578000  	9,707557  	68,338271  	1256,818530  	57,696365  	80,441540  	77,597185  	0,003996  	0,011057  	0,003962  	0,004020  	0,004490  	0,000002  	-0,000000  	26,400773  	20,748445  	23,108619  	35,653821  	52,823768  	49,656988  	51,388083  	57,243901  	68,417085  	66,158140  	68,225328  	74,378897  	25,156076  	22,982719  	24,420452  	76,455368  	0,022601  	0,011452  	-2811,285717  	-24482,676819  	-0,018192  	-0,049975  	0,413989  	0,209771  	-2,503029  	15193,977375  	842,807921  	0,122239  	-0,047930  
14,578000  	9,707680  	68,339080  	657,272221  	657,183579  	80,437915  	77,597872  	0,003994  	0,011101  	0,003961  	0,003969  	0,004458  	0,000001  	-0,000000  	26,408790  	20,751168  	23,116221  	35,660567  	52,819718  	49,663652  	51,392034  	57,244823  	68,417788  	66,157446  	68,227790  	74,381250  	25,153409  	22,987701  	24,418781  	76,460298  	-0,018122  	-0,009183  	2254,242474  	-1,810134  	-0,018195  	-0,049984  	0,388925  	0,197071  	-2,347923  	15288,998003  	790,760603  	0,114690  	-0,047937  
15,577000  	9,706762  	68,337212  	657,272221  	-242,047242  	80,436197  	77,592721  	0,003995  	0,011042  	0,003962  	0,004007  	0,004513  	0,000000  	-0,000000  	26,408790  	20,755160  	23,113308  	35,665918  	52,823997  	49,665738  	51,395056  	57,245298  	68,420008  	66,159237  	68,228451  	74,386216  	25,150889  	22,993393  	24,424300  	76,461219  	0,012435  	0,006301  	-1546,812005  	-32741,363687  	-0,035219  	-0,049995  	0,432945  	0,219376  	-2,616826  	15160,986331  	829,497760  	0,120308  	-0,047947  
16,579000  	9,706028  	68,334037  	57,725912  	956,927186  	80,437321  	77,597216  	0,003996  	0,011052  	0,003963  	0,004036  	0,004442  	0,000000  	-0,000000  	26,415589  	20,765773  	23,117208  	35,665278  	52,829619  	49,668808  	51,395145  	57,254700  	68,424252  	66,165329  	68,236518  	74,394904  	25,152556  	23,006783  	24,435734  	76,459221  	0,035759  	0,018119  	-4447,862725  	21302,026898  	-0,021694  	-0,049994  	0,376387  	0,190718  	-2,272283  	15184,204006  	835,965722  	0,121247  	-0,047946  
17,583000  	9,706456  	68,322302  	1256,818530  	956,927186  	80,440134  	77,591160  	0,003995  	0,011080  	0,003962  	0,003990  	0,004389  	0,000001  	-0,000000  	26,417974  	20,762112  	23,124941  	35,663440  	52,825022  	49,666106  	51,387495  	57,254348  	68,425593  	66,163069  	68,238161  	74,393539  	25,154055  	23,013609  	24,431197  	76,449156  	-0,001162  	-0,000589  	144,487315  	-4420,105286  	-0,012269  	-0,049993  	0,334463  	0,169475  	-2,025483  	15242,813089  	809,288911  	0,117377  	-0,047946  
18,581000  	9,706273  	68,316575  	657,272221  	357,439972  	80,443571  	77,595031  	0,003997  	0,011080  	0,003962  	0,003966  	0,004475  	-0,000000  	-0,000000  	26,406670  	20,753789  	23,115708  	35,662937  	52,817893  	49,658568  	51,382491  	57,244216  	68,424240  	66,160353  	68,233242  	74,382537  	25,139469  	23,001582  	24,421327  	76,447605  	-0,020929  	-0,010605  	2602,491124  	-7103,810469  	-0,021696  	-0,050002  	0,402192  	0,203794  	-2,435281  	15243,454035  	852,170931  	0,123597  	-0,047953  
19,580000  	9,706640  	68,319656  	-242,047242  	1256,670793  	80,445977  	77,596717  	0,003996  	0,011030  	0,003963  	0,004003  	0,004471  	0,000001  	-0,000000  	26,414441  	20,751625  	23,116707  	35,661632  	52,820714  	49,664305  	51,395617  	57,247687  	68,417265  	66,158992  	68,239092  	74,389861  	25,150199  	22,995530  	24,426498  	76,458160  	0,009447  	0,004787  	-1174,711885  	35503,408541  	-0,021693  	-0,049991  	0,399176  	0,202265  	-2,417626  	15136,072908  	844,460217  	0,122479  	-0,047944  
20,579000  	9,704988  	68,324948  	957,045375  	57,696365  	80,442665  	77,594594  	0,003995  	0,011089  	0,003961  	0,004022  	0,004441  	0,000002  	-0,000000  	26,421390  	20,752497  	23,125433  	35,659185  	52,815598  	49,666727  	51,399227  	57,248785  	68,414222  	66,159657  	68,242733  	74,390707  	25,159982  	22,979988  	24,420836  	76,450467  	0,024643  	0,012487  	-3064,827617  	-21299,368178  	-0,021687  	-0,049980  	0,375810  	0,190426  	-2,275161  	15262,013885  	821,617580  	0,119166  	-0,047935  
21,576000  	9,705202  	68,333166  	57,725912  	57,696365  	80,443258  	77,591690  	0,003995  	0,011073  	0,003965  	0,004008  	0,004428  	0,000001  	-0,000000  	26,405001  	20,749527  	23,117886  	35,652749  	52,817845  	49,655225  	51,389921  	57,239718  	68,414252  	66,157295  	68,241713  	74,381525  	25,153710  	22,952481  	24,423735  	76,448347  	0,012750  	0,006460  	-1585,840246  	-1,524689  	-0,051168  	-0,049987  	0,365066  	0,184982  	-2,212831  	15227,763587  	815,905156  	0,118337  	-0,047941  
22,597000  	9,704284  	68,327874  	657,272221  	657,183579  	80,443508  	77,587944  	0,003997  	0,011044  	0,003962  	0,004024  	0,004441  	0,000001  	-0,000000  	26,407885  	20,749536  	23,112483  	35,658005  	52,822345  	49,656246  	51,391734  	57,243273  	68,413566  	66,149477  	68,249616  	74,376535  	25,172551  	22,928619  	24,412791  	76,449658  	0,026322  	0,013337  	-3273,754080  	-1,810143  	-0,018195  	-0,049984  	0,375185  	0,190109  	-2,277348  	15165,583316  	868,446751  	0,125958  	-0,047938  
23,578000  	9,703642  	68,327033  	-242,047242  	-242,047242  	80,440415  	77,593876  	0,003995  	0,011083  	0,003961  	0,004011  	0,004466  	-0,000000  	-0,000000  	26,393059  	20,738691  	23,109804  	35,663660  	52,810027  	49,646105  	51,384960  	57,239588  	68,406026  	66,143304  	68,234131  	74,363611  	25,159314  	22,897218  	24,405692  	76,449917  	0,015938  	0,008076  	-1982,271798  	-0,000000  	-0,544440  	-0,050001  	0,395287  	0,200295  	-2,391789  	15249,405780  	813,511445  	0,117990  	-0,047952  
24,576000  	9,703153  	68,333010  	957,045375  	956,927186  	80,439602  	77,596436  	0,003995  	0,011083  	0,003963  	0,003966  	0,004436  	0,000001  	-0,000000  	26,399684  	20,743664  	23,113896  	35,664398  	52,817694  	49,663487  	51,390688  	57,237006  	68,411873  	66,144225  	68,246583  	74,367606  	25,163524  	22,875683  	24,422182  	76,452498  	-0,021304  	-0,010795  	2649,924085  	-1,916761  	-0,013763  	-0,049991  	0,371924  	0,188457  	-2,247758  	15249,726253  	812,833580  	0,117892  	-0,047943  
25,577000  	9,704957  	68,339920  	57,725912  	1256,670793  	80,437759  	77,598402  	0,003996  	0,011093  	0,003963  	0,003988  	0,004473  	0,000001  	-0,000000  	26,403509  	20,746592  	23,118596  	35,659351  	52,821105  	49,662188  	51,403415  	57,256311  	68,410829  	66,145502  	68,253420  	74,379566  	25,169209  	22,870103  	24,427189  	76,461872  	-0,003334  	-0,001689  	414,718222  	24484,045091  	-0,018196  	-0,049984  	0,400700  	0,203038  	-2,418425  	15270,901531  	849,586571  	0,123222  	-0,047938  
26,578000  	9,705141  	68,341415  	1256,818530  	657,183579  	80,440071  	77,597528  	0,003995  	0,011050  	0,003962  	0,004014  	0,004485  	-0,000001  	-0,000000  	26,401188  	20,737591  	23,117599  	35,672835  	52,816889  	49,658397  	51,387723  	57,236787  	68,409003  	66,144966  	68,240771  	74,376376  	25,149096  	22,839520  	24,421240  	76,460830  	0,017571  	0,008903  	-2185,803734  	-9728,862963  	-0,013769  	-0,050015  	0,410642  	0,208075  	-2,481208  	15179,870899  	825,479998  	0,119726  	-0,047964  
27,577000  	9,705049  	68,338240  	1256,818530  	657,183579  	80,442883  	77,593876  	0,003994  	0,011055  	0,003962  	0,003956  	0,004444  	0,000001  	-0,000000  	26,390843  	20,730203  	23,116397  	35,659772  	52,814816  	49,650290  	51,387743  	57,234719  	68,406495  	66,141336  	68,248148  	74,366968  	25,142396  	22,823562  	24,414998  	76,446946  	-0,029164  	-0,014777  	3627,795604  	-9723,660000  	-0,013762  	-0,049985  	0,377675  	0,191370  	-2,287201  	15190,249133  	794,340577  	0,115209  	-0,047939  
28,577000  	9,704560  	68,337991  	1256,818530  	1256,670793  	80,443383  	77,593876  	0,003997  	0,011054  	0,003964  	0,004003  	0,004458  	0,000001  	-0,000000  	26,408481  	20,739707  	23,114900  	35,653690  	52,812059  	49,664108  	51,382928  	57,242109  	68,405690  	66,132574  	68,245278  	74,362381  	25,149181  	22,800187  	24,411818  	76,446441  	0,008877  	0,004498  	-1104,197943  	-1,992968  	-0,011065  	-0,049983  	0,388866  	0,197041  	-2,355388  	15187,696668  	870,374430  	0,126237  	-0,047937  
29,580000  	9,706976  	68,339173  	1256,818530  	57,696365  	80,442883  	77,591004  	0,003998  	0,011057  	0,003964  	0,004044  	0,004445  	0,000002  	-0,000000  	26,421848  	20,748753  	23,120437  	35,666744  	52,827767  	49,657956  	51,385551  	57,242488  	68,414378  	66,144851  	68,255293  	74,374171  	25,158206  	22,799469  	24,420433  	76,449549  	0,041998  	0,021281  	-5224,223066  	-24482,696549  	-0,018192  	-0,049975  	0,378885  	0,191984  	-2,296843  	15193,021615  	878,106327  	0,127359  	-0,047930  
30,577000  	9,706548  	68,339734  	1256,818530  	1256,670793  	80,441758  	77,599682  	0,003995  	0,011063  	0,003960  	0,003973  	0,004430  	-0,000000  	-0,000000  	26,410407  	20,754627  	23,124658  	35,665563  	52,824259  	49,655214  	51,396737  	57,246324  	68,420134  	66,157258  	68,254441  	74,383916  	25,168342  	22,785092  	24,422656  	76,455965  	-0,015628  	-0,007919  	1944,080632  	-1,993733  	-0,011069  	-0,050005  	0,366754  	0,185837  	-2,215664  	15207,777526  	822,556706  	0,119302  	-0,047956  
31,578000  	9,706273  	68,342162  	1256,818530  	1256,670793  	80,443133  	77,598871  	0,003994  	0,011080  	0,003962  	0,003987  	0,004451  	0,000000  	-0,000000  	26,420664  	20,752379  	23,129165  	35,672647  	52,832032  	49,663993  	51,403883  	57,244882  	68,429014  	66,150256  	68,265377  	74,390442  	25,172024  	22,775053  	24,427781  	76,457819  	-0,003972  	-0,002012  	494,078977  	-1,993494  	-0,011068  	-0,049998  	0,383639  	0,194393  	-2,319456  	15243,382583  	806,309130  	0,116945  	-0,047950  
32,576000  	9,706273  	68,340356  	1256,818530  	57,696365  	80,443571  	77,599120  	0,003996  	0,011057  	0,003961  	0,003966  	0,004460  	0,000002  	-0,000000  	26,413233  	20,744464  	23,118263  	35,664357  	52,826593  	49,662164  	51,391124  	57,246467  	68,423035  	66,145923  	68,258728  	74,381792  	25,166025  	22,765749  	24,413395  	76,451389  	-0,021264  	-0,010774  	2645,123381  	-24484,633684  	-0,018193  	-0,049980  	0,390262  	0,197749  	-2,359652  	15194,287943  	848,252024  	0,123029  	-0,047934  
33,581000  	9,705386  	68,331111  	-242,047242  	-242,047242  	80,445508  	77,596155  	0,003997  	0,011077  	0,003962  	0,004009  	0,004459  	0,000001  	-0,000000  	26,411716  	20,742662  	23,119183  	35,664335  	52,819326  	49,664569  	51,390442  	57,242149  	68,414318  	66,139432  	68,256900  	74,369369  	25,169695  	22,756633  	24,421693  	76,449079  	0,014029  	0,007108  	-1744,857292  	-0,000000  	-0,544306  	-0,049987  	0,389445  	0,197335  	-2,358770  	15236,361180  	855,073040  	0,124018  	-0,047940  
34,577000  	9,703122  	68,325010  	-242,047242  	357,439972  	80,445383  	77,600026  	0,003992  	0,011042  	0,003963  	0,004005  	0,004404  	0,000001  	-0,000000  	26,402575  	20,751034  	23,113757  	35,666261  	52,824255  	49,659458  	51,388584  	57,238705  	68,417658  	66,137129  	68,252541  	74,374463  	25,157456  	22,750413  	24,420910  	76,453261  	0,010506  	0,005323  	-1306,631314  	30938,863967  	-0,051176  	-0,049993  	0,346425  	0,175536  	-2,095266  	15161,243134  	751,981078  	0,109066  	-0,047946  
35,580000  	9,702663  	68,320154  	657,272221  	1256,670793  	80,442727  	77,594625  	0,003995  	0,011046  	0,003962  	0,003971  	0,004448  	-0,000000  	-0,000000  	26,406928  	20,751483  	23,115144  	35,665823  	52,823822  	49,666921  	51,386938  	57,247011  	68,424097  	66,137595  	68,260242  	74,379501  	25,173220  	22,755950  	24,421159  	76,454817  	-0,016565  	-0,008394  	2060,094037  	9723,622114  	-0,013767  	-0,050006  	0,381119  	0,193116  	-2,307326  	15169,707727  	824,766828  	0,119622  	-0,047957  
36,584000  	9,703764  	68,319905  	57,725912  	1256,670793  	80,437665  	77,596061  	0,003995  	0,011059  	0,003963  	0,003982  	0,004462  	0,000001  	-0,000000  	26,412959  	20,747838  	23,124324  	35,672046  	52,829096  	49,672036  	51,395366  	57,255797  	68,426903  	66,148574  	68,263617  	74,388029  	25,186068  	22,752555  	24,419985  	76,458691  	-0,008332  	-0,004222  	1036,122300  	24488,179047  	-0,018199  	-0,049993  	0,392515  	0,198890  	-2,370896  	15198,817721  	813,483201  	0,117986  	-0,047946  
37,577000  	9,703764  	68,329866  	1256,818530  	956,927186  	80,435665  	77,597310  	0,003995  	0,011065  	0,003960  	0,004017  	0,004448  	0,000001  	-0,000000  	26,409086  	20,749419  	23,121208  	35,662609  	52,825680  	49,663744  	51,391981  	57,244702  	68,420740  	66,152138  	68,253129  	74,381925  	25,181243  	22,737181  	24,417455  	76,450224  	0,020439  	0,010357  	-2542,211987  	-4419,835302  	-0,012268  	-0,049990  	0,381110  	0,193111  	-2,299378  	15211,152045  	825,769503  	0,119768  	-0,047943  
