06/24/2020 16:25:44
Tempo T_f_e T_f_s AR AR T_q_e T_q_s Corrente_P_f Corrente_P_q Corrente_P_RESERVA Corrente_eletromag_f Corrente_eletromag_q AR AR T_1 T_2 T_3 T_4 T_5 T_6 T_7 T_8 T_9 T_10 T_11 T_12 T_13 T_14 T_15 T_16 Velocidade_f_(m/s) Vazao_f_(L/s) q_f_(W) AR AR AR Velocidade_q_(m/s) Vazao_q_(L/s) q_q_(W) DeltaP_q_(Pa) DeltaP_f_(Pa) DeltaP_f_(Psi) AR
0,008000  	18,354399  	39,563386  	26,539235  	956,927186  	79,994152  	73,427727  	0,004511  	0,008502  	0,003964  	0,004123  	0,004293  	0,000000  	-0,000000  	25,311978  	21,726269  	23,167442  	25,094467  	32,038099  	30,012980  	31,817469  	33,090890  	40,239251  	38,539177  	42,700751  	67,002534  	28,983067  	27,860153  	28,119605  	72,420100  	0,106662  	0,054046  	-4794,378547  	22426,086833  	-0,022137  	-0,049996  	0,258240  	0,130852  	-3,601977  	9683,536476  	11945,875818  	1,732603  	-0,047948  
2,552000  	18,371143  	39,562152  	26,538744  	357,439972  	79,998526  	73,428787  	0,004511  	0,008242  	0,003963  	0,004109  	0,004370  	0,000000  	-0,000000  	25,316350  	21,736873  	23,159202  	25,089563  	32,040706  	30,019315  	31,817194  	33,089319  	40,228957  	38,531709  	42,694886  	66,997821  	28,979114  	27,853104  	28,132428  	72,411094  	0,094627  	0,047948  	-4249,826581  	12418,176069  	-0,036402  	-0,049996  	0,319584  	0,161935  	-4,459869  	9123,420946  	11943,206725  	1,732216  	-0,047948  
3,552000  	18,373627  	39,559930  	26,538559  	1256,670793  	80,000182  	73,432965  	0,004518  	0,008638  	0,003962  	0,004074  	0,004318  	0,000000  	-0,000000  	25,314252  	21,730132  	23,161180  	25,095495  	32,036160  	30,016887  	31,814494  	33,089026  	40,221398  	38,535573  	42,703041  	67,004884  	28,978575  	27,850743  	28,138512  	72,419619  	0,066438  	0,033665  	-2983,138438  	25484,698853  	-0,018511  	-0,049999  	0,277718  	0,140722  	-3,874134  	9977,224960  	12095,126148  	1,754250  	-0,047950  
4,555000  	18,384422  	39,563880  	26,537698  	57,696365  	80,001806  	73,416939  	0,004525  	0,008351  	0,003964  	0,003995  	0,004347  	0,000000  	-0,000000  	25,321851  	21,735497  	23,166500  	25,095658  	32,031757  	30,017546  	31,819791  	33,091861  	40,235221  	38,533365  	42,708108  	67,005261  	28,978484  	27,856982  	28,138127  	72,425653  	0,002412  	0,001222  	-108,244441  	1683,606443  	-0,053707  	-0,049996  	0,301429  	0,152736  	-4,216197  	9359,105921  	12228,256001  	1,773559  	-0,047948  
5,558000  	18,401964  	39,560887  	26,535792  	1256,670793  	80,002681  	73,410236  	0,004507  	0,008362  	0,003963  	0,004083  	0,004368  	-0,000001  	-0,000000  	25,315502  	21,730044  	23,150284  	25,099646  	32,029451  	30,014724  	31,815681  	33,090106  	40,228757  	38,531072  	42,697199  	67,004225  	28,971271  	27,856636  	28,124616  	72,417286  	0,074123  	0,037559  	-3323,918420  	25491,156160  	-0,018516  	-0,050013  	0,317902  	0,161083  	-4,451718  	9382,349771  	11858,106428  	1,719873  	-0,047962  
6,556000  	18,417543  	39,554900  	26,536100  	657,183579  	80,005056  	73,425326  	0,004514  	0,008526  	0,003964  	0,004140  	0,004338  	0,000000  	-0,000000  	25,318481  	21,734921  	23,152333  	25,094607  	32,032693  	30,011006  	31,812519  	33,082102  	40,226153  	38,516766  	42,688032  	67,003420  	28,973130  	27,862950  	28,129347  	72,418166  	0,119671  	0,060638  	-5360,923010  	18386,291124  	-0,027531  	-0,049995  	0,294281  	0,149114  	-4,113010  	9736,812830  	11995,748320  	1,739836  	-0,047947  
7,556000  	18,424443  	39,555825  	26,534348  	657,183579  	80,008523  	73,418779  	0,004524  	0,008407  	0,003963  	0,004202  	0,004293  	0,000001  	-0,000000  	25,322592  	21,732429  	23,166121  	25,088250  	32,034288  	30,014612  	31,815477  	33,088557  	40,234203  	38,530076  	42,698070  	67,002979  	28,971023  	27,869361  	28,134891  	72,424483  	0,170359  	0,086322  	-7629,479301  	18384,688976  	-0,027528  	-0,049989  	0,258293  	0,130879  	-3,615517  	9479,070393  	12215,122367  	1,771654  	-0,047942  
8,551000  	18,428430  	39,552431  	26,532257  	1256,670793  	80,011023  	73,416347  	0,004512  	0,008481  	0,003963  	0,004133  	0,004378  	-0,000001  	-0,000000  	25,313880  	21,729962  	23,156396  	25,085351  	32,033167  	30,009188  	31,811768  	33,081448  	40,233200  	38,533882  	42,696483  	67,002649  	28,968864  	27,856048  	28,124231  	72,416044  	0,114005  	0,057767  	-5103,899810  	25490,440088  	-0,018515  	-0,050011  	0,325661  	0,165015  	-4,561927  	9637,984727  	11960,520526  	1,734727  	-0,047961  
9,592000  	18,443395  	39,545210  	26,530198  	-242,047242  	80,011023  	73,430782  	0,004507  	0,008504  	0,003963  	0,004043  	0,004378  	-0,000000  	-0,000000  	25,304033  	21,732197  	23,153999  	25,086481  	32,031330  	30,008752  	31,813505  	33,083660  	40,223062  	38,528275  	42,693078  	67,009761  	28,966556  	27,843919  	28,127496  	72,417439  	0,041812  	0,021187  	-1869,927115  	-27109,157017  	-0,102393  	-0,050005  	0,325287  	0,164825  	-4,546720  	9689,022014  	11847,691316  	1,718362  	-0,047956  
10,552000  	18,448916  	39,547246  	26,529398  	357,439972  	80,005587  	73,445499  	0,004518  	0,008442  	0,003965  	0,004097  	0,004406  	0,000001  	-0,000000  	25,311771  	21,728412  	23,161320  	25,087442  	32,033677  	30,012121  	31,812249  	33,083735  	40,221608  	38,526236  	42,697095  	67,010428  	28,968932  	27,826201  	28,128107  	72,419108  	0,085191  	0,043167  	-3809,267959  	12416,255049  	-0,036396  	-0,049985  	0,348106  	0,176388  	-4,850779  	9555,589890  	12093,713929  	1,754045  	-0,047939  
11,552000  	18,453516  	39,556504  	26,528292  	1256,670793  	79,999307  	73,440604  	0,004526  	0,008069  	0,003963  	0,004114  	0,004383  	-0,000001  	-0,000000  	25,311028  	21,726889  	23,152973  	25,085836  	32,034611  	30,015156  	31,819183  	33,081591  	40,226328  	38,528558  	42,698159  	67,005486  	28,971251  	27,808342  	28,131283  	72,414277  	0,099280  	0,050306  	-4440,247920  	25489,887244  	-0,018515  	-0,050009  	0,329217  	0,166817  	-4,586592  	8750,633617  	12252,002458  	1,777003  	-0,047959  
12,556000  	18,460140  	39,564960  	26,527247  	57,696365  	79,998932  	73,428756  	0,004507  	0,008677  	0,003963  	0,004105  	0,004371  	-0,000001  	-0,000000  	25,303999  	21,724167  	23,145885  	25,077007  	32,029689  	30,003345  	31,808126  	33,081509  	40,219624  	38,523538  	42,696745  	67,004215  	28,972227  	27,796160  	28,129022  	72,405363  	0,091723  	0,046477  	-4102,598320  	1684,576807  	-0,053720  	-0,050009  	0,319871  	0,162081  	-4,464168  	10061,926072  	11858,911393  	1,719990  	-0,047959  
13,552000  	18,451798  	39,563695  	26,527185  	57,696365  	80,005774  	73,412231  	0,004515  	0,008427  	0,003964  	0,004149  	0,004344  	0,000001  	-0,000000  	25,304874  	21,720983  	23,149615  	25,075453  	32,024232  	29,998900  	31,801378  	33,082164  	40,216855  	38,516747  	42,691988  	67,001304  	28,970250  	27,791394  	28,121709  	72,408577  	0,127458  	0,064584  	-5702,865004  	1684,057809  	-0,053704  	-0,049991  	0,298687  	0,151347  	-4,183342  	9523,298511  	12012,490173  	1,742264  	-0,047944  
14,553000  	18,435238  	39,574064  	26,525771  	1256,670793  	80,013022  	73,405559  	0,004524  	0,008488  	0,003963  	0,004117  	0,004373  	-0,000000  	-0,000000  	25,308541  	21,718888  	23,152970  	25,078028  	32,024370  	30,006518  	31,808983  	33,081972  	40,220266  	38,520929  	42,694278  	67,000231  	28,968929  	27,784329  	28,123256  	72,416420  	0,101179  	0,051268  	-4532,874830  	25486,531086  	-0,018512  	-0,050002  	0,321836  	0,163077  	-4,517071  	9653,339138  	12226,808477  	1,773349  	-0,047953  
15,555000  	18,424841  	39,584803  	26,524111  	1256,670793  	80,015834  	73,405715  	0,004516  	0,008520  	0,003961  	0,004113  	0,004345  	-0,000000  	-0,000000  	25,308126  	21,717601  	23,150014  	25,076166  	32,024417  	30,009153  	31,806058  	33,075958  	40,219313  	38,525622  	42,696979  	67,001347  	28,974689  	27,774111  	28,126739  	72,413391  	0,098118  	0,049717  	-4400,110079  	25488,010674  	-0,018513  	-0,050005  	0,299645  	0,151832  	-4,207305  	9724,060406  	12050,012822  	1,747707  	-0,047956  
16,553000  	18,426375  	39,583939  	26,523435  	1256,670793  	80,012835  	73,419807  	0,004507  	0,008349  	0,003961  	0,004095  	0,004323  	-0,000000  	-0,000000  	25,309549  	21,724896  	23,150221  	25,079306  	32,022258  	30,010883  	31,805016  	33,075888  	40,220116  	38,524751  	42,697015  	67,003640  	28,983513  	27,772859  	28,131872  	72,412388  	0,083505  	0,042313  	-3744,394208  	25486,888510  	-0,018512  	-0,050002  	0,281938  	0,142860  	-3,948455  	9353,938027  	11847,768988  	1,718374  	-0,047953  
17,557000  	18,428368  	39,572583  	26,522666  	1256,670793  	80,008867  	73,441134  	0,004518  	0,008417  	0,003961  	0,004029  	0,004336  	0,000002  	-0,000000  	25,312863  	21,731940  	23,158698  	25,087049  	32,025029  	30,015780  	31,812518  	33,084837  	40,221366  	38,526002  	42,700817  	67,009058  	28,986673  	27,771882  	28,140361  	72,416916  	0,030316  	0,015361  	-1358,511689  	25473,625188  	-0,018503  	-0,049973  	0,292658  	0,148292  	-4,082876  	9500,586660  	12077,431048  	1,751683  	-0,047928  
18,554000  	18,420211  	39,574002  	26,521744  	1256,670793  	80,011491  	73,438515  	0,004523  	0,008363  	0,003963  	0,004126  	0,004336  	0,000002  	-0,000000  	25,307982  	21,726081  	23,158479  	25,088306  	32,029064  	30,014152  	31,810820  	33,080518  	40,219622  	38,522506  	42,688909  	67,007411  	28,983071  	27,758264  	28,129839  	72,414769  	0,108967  	0,055215  	-4885,246766  	25475,961792  	-0,018504  	-0,049978  	0,292469  	0,148196  	-4,083490  	9384,731742  	12196,339859  	1,768930  	-0,047933  
19,553000  	18,404386  	39,579094  	26,520914  	1256,670793  	80,018833  	73,437486  	0,004510  	0,008618  	0,003965  	0,004022  	0,004354  	-0,000001  	-0,000000  	25,306337  	21,726809  	23,151522  	25,081711  	32,027333  	30,003203  	31,805106  	33,074073  	40,219186  	38,520950  	42,683610  	67,005049  	28,981695  	27,738656  	28,117782  	72,411836  	0,024379  	0,012353  	-1094,037165  	25492,488807  	-0,018516  	-0,050014  	0,306473  	0,155292  	-4,284474  	9934,028299  	11909,821876  	1,727374  	-0,047964  
20,553000  	18,386783  	39,583908  	26,519561  	1256,670793  	80,017834  	73,439793  	0,004514  	0,008573  	0,003964  	0,004113  	0,004321  	-0,000000  	-0,000000  	25,309634  	21,731838  	23,149366  	25,084873  	32,020576  	30,008580  	31,799747  	33,072102  	40,220394  	38,527789  	42,694511  	67,002261  	28,983743  	27,714920  	28,127614  	72,407117  	0,098234  	0,049776  	-4413,081301  	25486,713385  	-0,018512  	-0,050002  	0,280850  	0,142309  	-3,924288  	9837,882831  	12001,298340  	1,740641  	-0,047953  
21,553000  	18,375866  	39,592488  	26,519285  	57,696365  	80,011741  	73,440978  	0,004526  	0,008525  	0,003963  	0,004108  	0,004303  	-0,000001  	-0,000000  	25,303054  	21,723931  	23,148230  	25,088066  	32,023399  	30,010476  	31,802686  	33,081241  	40,224615  	38,518187  	42,699983  	67,009212  	28,978383  	27,694517  	28,121265  	72,404305  	0,093967  	0,047614  	-4225,262751  	1684,968034  	-0,053719  	-0,050007  	0,266319  	0,134946  	-3,717133  	9734,700396  	12249,446342  	1,776632  	-0,047957  
22,554000  	18,374884  	39,597672  	26,518362  	1256,670793  	80,009304  	73,455819  	0,004518  	0,008005  	0,003961  	0,004082  	0,004372  	-0,000001  	-0,000000  	25,309417  	21,723801  	23,158814  	25,091510  	32,033567  	30,014167  	31,815684  	33,077041  	40,227320  	38,528039  	42,699200  	67,014566  	28,998584  	27,671782  	28,130774  	72,405824  	0,073265  	0,037124  	-3295,373586  	25492,858815  	-0,018517  	-0,050015  	0,321157  	0,162733  	-4,470760  	8611,973466  	12080,375524  	1,752110  	-0,047964  
23,554000  	18,383256  	39,594802  	26,517994  	1256,670793  	80,013772  	73,456287  	0,004507  	0,008606  	0,003966  	0,004040  	0,004351  	0,000000  	-0,000000  	25,303245  	21,715638  	23,141918  	25,078158  	32,019587  	29,999647  	31,794808  	33,074530  	40,213936  	38,509879  	42,688452  	66,993801  	28,980972  	27,646169  	28,120655  	72,407283  	0,039068  	0,019796  	-1756,309227  	25484,162458  	-0,018510  	-0,049996  	0,304578  	0,154332  	-4,242551  	9909,044131  	11850,155637  	1,718720  	-0,047948  
24,552000  	18,389697  	39,592148  	26,517932  	1256,670793  	80,015272  	73,441446  	0,004515  	0,008348  	0,003964  	0,004143  	0,004421  	0,000000  	-0,000000  	25,312955  	21,733153  	23,150415  	25,081898  	32,026034  	30,007386  	31,800995  	33,081867  	40,220407  	38,528112  	42,699063  	67,010024  	28,982691  	27,626188  	28,116193  	72,409494  	0,122544  	0,062094  	-5506,547662  	25485,263717  	-0,018511  	-0,049998  	0,359774  	0,182300  	-5,023872  	9351,807199  	12013,542275  	1,742417  	-0,047950  
25,555000  	18,409968  	39,602733  	26,517164  	1256,670793  	80,015709  	73,433433  	0,004521  	0,008505  	0,003964  	0,004058  	0,004363  	-0,000001  	-0,000000  	25,316181  	21,730004  	23,154573  	25,094176  	32,032843  	30,012113  	31,822269  	33,074130  	40,218742  	38,514291  	42,710322  	67,008906  	28,986738  	27,612385  	28,132423  	72,403722  	0,053607  	0,027163  	-2407,752300  	25490,101858  	-0,018515  	-0,050009  	0,314145  	0,159180  	-4,392344  	9690,875523  	12144,589106  	1,761424  	-0,047959  
26,553000  	18,426221  	39,606004  	26,517532  	1256,670793  	80,017209  	73,433433  	0,004512  	0,008610  	0,003966  	0,004137  	0,004387  	-0,000001  	-0,000000  	25,313414  	21,732336  	23,166955  	25,097902  	32,043803  	30,020378  	31,817979  	33,100022  	40,228311  	38,528903  	42,694225  	67,016026  	28,996911  	27,595402  	28,130241  	72,412770  	0,117939  	0,059760  	-5293,936247  	25493,574359  	-0,018517  	-0,050017  	0,332934  	0,168700  	-4,656111  	9916,379640  	11953,198172  	1,733665  	-0,047966  
27,554000  	18,434502  	39,596006  	26,516057  	1256,670793  	80,015022  	73,436395  	0,004514  	0,008380  	0,003964  	0,004175  	0,004390  	-0,000000  	-0,000000  	25,303512  	21,725178  	23,155630  	25,074373  	32,025010  	30,008224  	31,806992  	33,089030  	40,221711  	38,515461  	42,696521  	66,998136  	28,988435  	27,570578  	28,107959  	72,392880  	0,148466  	0,075229  	-6658,448204  	25487,759967  	-0,018513  	-0,050004  	0,335093  	0,169794  	-4,682643  	9421,183612  	12008,437105  	1,741677  	-0,047955  
28,554000  	18,427571  	39,585328  	26,516672  	57,696365  	80,011523  	73,429286  	0,004523  	0,008400  	0,003962  	0,004041  	0,004315  	0,000000  	-0,000000  	25,301823  	21,714378  	23,135728  	25,083068  	32,014511  	30,003897  	31,804432  	33,076784  	40,217404  	38,523610  	42,685774  	66,998066  	28,976009  	27,558356  	28,104354  	72,392380  	0,040112  	0,020325  	-1798,655046  	1684,826069  	-0,053710  	-0,049997  	0,276047  	0,139875  	-3,859636  	9463,669998  	12195,845583  	1,768858  	-0,047949  
29,551000  	18,424197  	39,579866  	26,516180  	956,927186  	80,008836  	73,423611  	0,004521  	0,008426  	0,003960  	0,004092  	0,004357  	0,000000  	-0,000000  	25,313269  	21,728887  	23,155092  	25,093191  	32,042532  	30,015394  	31,808603  	33,084487  	40,227686  	38,522902  	42,699596  	67,011320  	28,981907  	27,562578  	28,129667  	72,407871  	0,080827  	0,040956  	-3623,962950  	22426,385593  	-0,022137  	-0,049995  	0,309363  	0,156757  	-4,327411  	9521,116747  	12160,257672  	1,763696  	-0,047947  
30,553000  	18,430760  	39,574990  	26,515258  	-242,047242  	80,011335  	73,417438  	0,004508  	0,008531  	0,003962  	0,004088  	0,004404  	0,000002  	-0,000000  	25,312089  	21,735939  	23,168006  	25,088333  	32,043572  	30,019894  	31,826774  	33,093638  	40,236777  	38,533811  	42,705542  	67,018890  	28,981365  	27,568772  	28,134019  	72,414450  	0,077751  	0,039397  	-3484,147287  	-27096,302257  	-0,102350  	-0,049979  	0,345834  	0,175237  	-4,843937  	9747,519320  	11879,515663  	1,722978  	-0,047934  
31,554000  	18,441893  	39,570916  	26,516549  	657,183579  	80,015459  	73,431780  	0,004515  	0,008529  	0,003962  	0,004029  	0,004326  	-0,000001  	-0,000000  	25,310202  	21,722691  	23,156480  	25,089641  	32,027934  	30,004902  	31,813759  	33,090514  	40,219892  	38,524171  	42,702617  	67,005146  	28,983973  	27,563625  	28,123934  	72,416157  	0,030457  	0,015433  	-1363,839351  	18391,111688  	-0,027537  	-0,050007  	0,284359  	0,144087  	-3,976724  	9741,781932  	12017,538854  	1,742997  	-0,047957  
32,551000  	18,444591  	39,575669  	26,516610  	1256,670793  	80,015272  	73,446808  	0,004523  	0,008399  	0,003962  	0,004113  	0,004364  	0,000002  	-0,000000  	25,309214  	21,717296  	23,145269  	25,087602  	32,026604  	30,002927  	31,807021  	33,080688  	40,218608  	38,512900  	42,694187  	66,995429  	28,975179  	27,549481  	28,117415  	72,404766  	0,098321  	0,049820  	-4403,185743  	25477,309253  	-0,018505  	-0,049981  	0,314713  	0,159467  	-4,391054  	9462,869169  	12189,349377  	1,767916  	-0,047935  
33,554000  	18,444929  	39,582057  	26,516180  	57,696365  	80,015803  	73,463863  	0,004509  	0,008264  	0,003963  	0,004080  	0,004403  	0,000000  	-0,000000  	25,311389  	21,719848  	23,155315  	25,083773  	32,024157  	30,007425  	31,808752  	33,088114  	40,220637  	38,526994  	42,699589  	67,000259  	28,975567  	27,562939  	28,109910  	72,399585  	0,071760  	0,036361  	-3214,605524  	1684,756299  	-0,053707  	-0,049994  	0,345717  	0,175177  	-4,811520  	9170,769609  	11901,567458  	1,726176  	-0,047946  
34,570000  	18,448241  	39,577428  	26,516057  	657,183579  	80,016365  	73,450706  	0,004513  	0,008564  	0,003963  	0,004106  	0,004345  	-0,000002  	-0,000000  	25,312969  	21,730372  	23,156681  	25,091059  	32,034310  	30,016712  	31,818848  	33,086391  	40,224710  	38,530363  	42,707642  	67,009603  	28,984548  	27,578006  	28,123645  	72,406612  	0,092294  	0,046766  	-4132,894348  	18398,044719  	-0,027548  	-0,050028  	0,299207  	0,151610  	-4,172925  	9818,582285  	11979,295973  	1,737450  	-0,047975  
35,568000  	18,445481  	39,582334  	26,514581  	657,183579  	80,016428  	73,434181  	0,004525  	0,008508  	0,003963  	0,004100  	0,004350  	-0,000001  	-0,000000  	25,305586  	21,730895  	23,153070  	25,099651  	32,037237  	30,015091  	31,815405  	33,087520  	40,222120  	38,528453  	42,701299  	67,007930  	28,989495  	27,587203  	28,121080  	72,407258  	0,087981  	0,044581  	-3941,212375  	18392,374786  	-0,027539  	-0,050010  	0,303612  	0,153843  	-4,245053  	9696,375916  	12227,931191  	1,773511  	-0,047960  
36,575000  	18,443027  	39,592704  	26,513598  	57,696365  	80,019052  	73,435054  	0,004521  	0,008485  	0,003963  	0,004083  	0,004320  	-0,000001  	-0,000000  	25,309027  	21,734125  	23,160716  	25,093778  	32,034555  	30,011832  	31,809585  	33,084108  	40,226663  	38,523673  	42,704501  	67,009800  	28,978105  	27,591481  	28,126092  	72,416574  	0,073642  	0,037315  	-3300,862880  	1685,308498  	-0,053720  	-0,050007  	0,279602  	0,141676  	-3,910384  	9648,021265  	12149,235306  	1,762098  	-0,047958  
37,554000  	18,444714  	39,594648  	26,515135  	1256,670793  	80,021145  	73,440261  	0,004506  	0,008496  	0,003961  	0,004120  	0,004325  	-0,000001  	-0,000000  	25,316202  	21,728887  	23,161798  	25,095798  	32,028561  	30,019388  	31,815479  	33,082735  	40,230512  	38,527554  	42,706957  	67,009106  	28,974690  	27,577569  	28,120604  	72,409436  	0,103528  	0,052458  	-4640,513797  	25489,253022  	-0,018514  	-0,050007  	0,283505  	0,143654  	-3,963106  	9672,287375  	11829,261862  	1,715689  	-0,047957  
