07/01/2020 15:23:00
Tempo T_f_e T_f_s AR AR T_q_e T_q_s Corrente_P_f Corrente_P_q Corrente_P_RESERVA Corrente_eletromag_f Corrente_eletromag_q AR AR T_1 T_2 T_3 T_4 T_5 T_6 T_7 T_8 T_9 T_10 T_11 T_12 T_13 T_14 T_15 T_16 Velocidade_f_(m/s) Vazao_f_(L/s) q_f_(W) AR AR AR Velocidade_q_(m/s) Vazao_q_(L/s) q_q_(W) DeltaP_q_(Pa) DeltaP_f_(Pa) DeltaP_f_(Psi) AR
0,006000  	9,925139  	65,608063  	957,045375  	1256,670793  	79,910143  	76,140211  	0,004006  	0,008275  	0,003960  	0,004048  	0,004314  	0,000001  	-0,000001  	25,607925  	20,064010  	22,160300  	33,599110  	49,759650  	46,885711  	48,686150  	54,396173  	65,520523  	63,492892  	65,631778  	72,750439  	25,238460  	23,356964  	19,303343  	74,839429  	0,045662  	0,023137  	-5394,106942  	4415,427019  	-0,012267  	-0,049983  	0,274564  	0,139124  	-2,199685  	9194,415289  	1058,143023  	0,153471  	-0,047937  
2,553000  	9,925690  	65,597364  	-242,047242  	657,183579  	79,909705  	76,140461  	0,004004  	0,008400  	0,003959  	0,004013  	0,004375  	0,000000  	-0,000000  	25,610085  	20,065291  	22,160924  	33,603900  	49,748990  	46,871110  	48,692170  	54,388353  	65,526504  	63,487902  	65,631942  	72,753824  	25,253681  	23,389952  	19,309521  	74,846036  	0,016959  	0,008593  	-2002,989112  	32740,940264  	-0,035222  	-0,049995  	0,323124  	0,163729  	-2,588253  	9464,771491  	1005,241312  	0,145798  	-0,047947  
3,554000  	9,925873  	65,605201  	657,272221  	657,183579  	79,916204  	76,124953  	0,004010  	0,008391  	0,003962  	0,004008  	0,004377  	0,000002  	-0,000000  	25,613898  	20,068234  	22,174283  	33,614555  	49,760730  	46,889762  	48,696069  	54,404938  	65,524624  	63,498762  	65,639517  	72,761319  	25,254044  	23,423569  	19,316969  	74,846665  	0,013086  	0,006631  	-1545,794482  	-1,809710  	-0,018191  	-0,049970  	0,325059  	0,164710  	-2,618949  	9444,138117  	1144,450767  	0,165989  	-0,047926  
4,552000  	9,927525  	65,605699  	1256,818530  	1256,670793  	79,915954  	76,123892  	0,004007  	0,008302  	0,003964  	0,003947  	0,004399  	0,000000  	-0,000000  	25,609671  	20,071455  	22,171385  	33,609033  	49,763788  	46,880005  	48,691132  	54,386615  	65,522480  	63,483167  	65,631550  	72,762599  	25,256304  	23,459353  	19,305611  	74,845762  	-0,036262  	-0,018374  	4283,287903  	-1,993342  	-0,011067  	-0,049994  	0,342056  	0,173322  	-2,756477  	9252,429410  	1081,578792  	0,156870  	-0,047946  
5,553000  	9,927495  	65,601407  	57,725912  	1256,670793  	79,914673  	76,133378  	0,004004  	0,008388  	0,003962  	0,003986  	0,004336  	-0,000001  	-0,000001  	25,604376  	20,071054  	22,163482  	33,609341  	49,756128  	46,880130  	48,691338  	54,391320  	65,523184  	63,484894  	65,632796  	72,746309  	25,240707  	23,476630  	19,305509  	74,839972  	-0,004394  	-0,002227  	518,999272  	24494,904572  	-0,018204  	-0,050009  	0,292191  	0,148055  	-2,347956  	9438,635601  	1011,645724  	0,146727  	-0,047959  
6,556000  	9,928106  	65,599043  	1256,818530  	1256,670793  	79,917797  	76,140118  	0,004006  	0,008433  	0,003963  	0,003985  	0,004355  	0,000003  	-0,000000  	25,606172  	20,063964  	22,158099  	33,610567  	49,747117  	46,875668  	48,686195  	54,388673  	65,523812  	63,479281  	65,632704  	72,750513  	25,244670  	23,500852  	19,297810  	74,836013  	-0,005893  	-0,002986  	696,007618  	-1,992299  	-0,011061  	-0,049965  	0,307610  	0,155868  	-2,469495  	9536,193131  	1063,036361  	0,154180  	-0,047921  
7,555000  	9,928198  	65,599603  	357,499067  	1256,670793  	79,919953  	76,140617  	0,004008  	0,008398  	0,003963  	0,004019  	0,004317  	0,000001  	-0,000000  	25,602999  	20,062238  	22,167316  	33,606142  	49,744232  	46,882216  	48,676290  	54,382033  	65,527687  	63,479411  	65,633061  	72,746717  	25,252362  	23,529278  	19,299320  	74,839869  	0,022164  	0,011230  	-2617,683920  	16228,904209  	-0,015674  	-0,049993  	0,277577  	0,140650  	-2,229368  	9459,004390  	1089,529583  	0,158023  	-0,047945  
8,556000  	9,929850  	65,598608  	957,045375  	57,696365  	79,920390  	76,142053  	0,004009  	0,008275  	0,003962  	0,003963  	0,004356  	0,000002  	-0,000001  	25,604610  	20,065414  	22,162983  	33,599495  	49,747425  	46,885643  	48,685621  	54,384568  	65,524135  	63,478600  	65,627970  	72,751621  	25,250497  	23,540437  	19,302843  	74,839456  	-0,023550  	-0,011933  	2781,265680  	-21299,427469  	-0,021687  	-0,049981  	0,308465  	0,156302  	-2,476797  	9193,859236  	1111,397789  	0,161195  	-0,047935  
9,554000  	9,927709  	65,592605  	957,045375  	956,927186  	79,918047  	76,136311  	0,004008  	0,008508  	0,003963  	0,003976  	0,004362  	0,000001  	-0,000001  	25,607717  	20,075125  	22,168066  	33,612577  	49,755546  	46,883688  	48,692117  	54,391298  	65,530367  	63,483410  	65,637829  	72,754540  	25,258312  	23,552966  	19,303484  	74,843772  	-0,013086  	-0,006631  	1545,406346  	-1,916857  	-0,013764  	-0,049993  	0,313064  	0,158632  	-2,515985  	9697,113075  	1094,740670  	0,158779  	-0,047946  
10,555000  	9,928076  	65,582839  	357,499067  	357,439972  	79,915797  	76,130819  	0,004005  	0,008351  	0,003964  	0,003996  	0,004324  	0,000001  	-0,000000  	25,611341  	20,072021  	22,162668  	33,610018  	49,749483  	46,878993  	48,688947  	54,392526  	65,530156  	63,477030  	65,639015  	72,751428  	25,263886  	23,546058  	19,313019  	74,840732  	0,003233  	0,001638  	-381,755985  	-1,684845  	-0,026846  	-0,049987  	0,282938  	0,143367  	-2,275813  	9359,603255  	1029,482045  	0,149314  	-0,047940  
11,557000  	9,928810  	65,581999  	1256,818530  	1256,670793  	79,912205  	76,138433  	0,004005  	0,008464  	0,003965  	0,004049  	0,004341  	-0,000000  	-0,000000  	25,601384  	20,065546  	22,156219  	33,608800  	49,742484  	46,880108  	48,683445  	54,387249  	65,522350  	63,473065  	65,635082  	72,746802  	25,259478  	23,524876  	19,308338  	74,836106  	0,046403  	0,023513  	-5478,709604  	-1,993682  	-0,011069  	-0,050003  	0,296083  	0,150027  	-2,374498  	9602,895398  	1038,273106  	0,150589  	-0,047954  
12,555000  	9,928198  	65,583119  	1256,818530  	1256,670793  	79,912892  	76,136498  	0,004010  	0,008306  	0,003962  	0,004003  	0,004391  	0,000001  	-0,000000  	25,601101  	20,063241  	22,162607  	33,606736  	49,747599  	46,883720  	48,685210  	54,382770  	65,521404  	63,479024  	65,632286  	72,750758  	25,276026  	23,508228  	19,298787  	74,839739  	0,008928  	0,004524  	-1054,093773  	-1,993141  	-0,011066  	-0,049988  	0,335716  	0,170110  	-2,694212  	9262,477267  	1141,301519  	0,165532  	-0,047941  
13,555000  	9,927403  	65,586509  	57,725912  	1256,670793  	79,913111  	76,147888  	0,004004  	0,008471  	0,003964  	0,004057  	0,004323  	-0,000000  	-0,000001  	25,608005  	20,058559  	22,164719  	33,603052  	49,749065  	46,885428  	48,686572  	54,382170  	65,521847  	63,478992  	65,631194  	72,751717  	25,285933  	23,489945  	19,296099  	74,841208  	0,052716  	0,026712  	-6224,776409  	24492,705774  	-0,018202  	-0,050004  	0,282222  	0,143004  	-2,258219  	9617,736203  	1014,413672  	0,147128  	-0,047955  
14,558000  	9,927158  	65,592605  	1256,818530  	1256,670793  	79,911611  	76,146764  	0,004009  	0,008441  	0,003964  	0,003988  	0,004316  	0,000001  	-0,000000  	25,615553  	20,065477  	22,166475  	33,608194  	49,747962  	46,891965  	48,692342  	54,389065  	65,525914  	63,479295  	65,639863  	72,756509  	25,289654  	23,476377  	19,299840  	74,836978  	-0,003066  	-0,001554  	362,075916  	-1,992919  	-0,011065  	-0,049982  	0,276758  	0,140235  	-2,214275  	9552,080249  	1127,567692  	0,163540  	-0,047936  
15,556000  	9,926975  	65,600443  	1256,818530  	1256,670793  	79,912954  	76,144330  	0,004007  	0,008274  	0,003964  	0,003994  	0,004343  	0,000000  	-0,000000  	25,611372  	20,071459  	22,166166  	33,609196  	49,743814  	46,887709  	48,698247  	54,391492  	65,525050  	63,479955  	65,644421  	72,756497  	25,293507  	23,461554  	19,300041  	74,834756  	0,001905  	0,000965  	-225,048662  	-1,993551  	-0,011068  	-0,050000  	0,298284  	0,151142  	-2,388888  	9191,757414  	1087,820798  	0,157775  	-0,047951  
16,557000  	9,926730  	65,605544  	1256,818530  	1256,670793  	79,915016  	76,148824  	0,004007  	0,008419  	0,003960  	0,003978  	0,004370  	-0,000000  	-0,000001  	25,604319  	20,062611  	22,159118  	33,606451  	49,738361  	46,878690  	48,695854  	54,385119  	65,516734  	63,476727  	65,642276  	72,748483  	25,287406  	23,433067  	19,301456  	74,830985  	-0,010873  	-0,005509  	1284,343648  	-1,993687  	-0,011069  	-0,050004  	0,319157  	0,161719  	-2,554411  	9504,735124  	1076,318277  	0,156107  	-0,047954  
17,558000  	9,924741  	65,611360  	-242,047242  	1256,670793  	79,918922  	76,152225  	0,004007  	0,008350  	0,003962  	0,004050  	0,004376  	-0,000000  	-0,000000  	25,613995  	20,062076  	22,163416  	33,608534  	49,741824  	46,882538  	48,695116  	54,382036  	65,514526  	63,475486  	65,644475  	72,751592  	25,290001  	23,411219  	19,308182  	74,828509  	0,047041  	0,023836  	-5557,364271  	35511,700926  	-0,021698  	-0,050004  	0,323891  	0,164118  	-2,592651  	9355,907557  	1082,567345  	0,157013  	-0,047955  
18,558000  	9,924130  	65,609805  	-242,047242  	1256,670793  	79,920484  	76,154035  	0,004007  	0,008467  	0,003963  	0,003989  	0,004312  	-0,000000  	-0,000000  	25,607413  	20,064876  	22,166049  	33,607992  	49,740206  	46,878323  	48,692280  	54,378766  	65,512776  	63,469718  	65,641600  	72,748649  	25,287632  	23,398867  	19,303575  	74,833656  	-0,002183  	-0,001106  	257,941422  	35511,700926  	-0,021698  	-0,050004  	0,273301  	0,138484  	-2,187547  	9608,840776  	1082,680322  	0,157030  	-0,047955  
19,557000  	9,923579  	65,603646  	657,272221  	1256,670793  	79,922671  	76,155939  	0,004005  	0,008350  	0,003961  	0,003905  	0,004340  	-0,000003  	-0,000000  	25,600843  	20,063055  	22,158654  	33,611319  	49,738639  	46,879449  	48,689231  	54,380571  	65,515353  	63,472225  	65,648646  	72,748866  	25,275626  	23,381674  	19,308325  	74,830276  	-0,070252  	-0,035597  	8298,568774  	9728,132508  	-0,013773  	-0,050032  	0,295285  	0,149623  	-2,363688  	9355,783754  	1038,562611  	0,150631  	-0,047979  
20,558000  	9,924191  	65,602589  	1256,818530  	1256,670793  	79,925357  	76,155626  	0,004004  	0,008388  	0,003962  	0,003959  	0,004327  	0,000000  	-0,000000  	25,607514  	20,061142  	22,163726  	33,602554  	49,737956  	46,874487  	48,688992  	54,381132  	65,505427  	63,473591  	65,650180  	72,747874  	25,264752  	23,369563  	19,308410  	74,830734  	-0,026446  	-0,013401  	3123,912862  	-1,993454  	-0,011068  	-0,049997  	0,285097  	0,144461  	-2,283956  	9438,895234  	1013,742868  	0,147031  	-0,047949  
21,559000  	9,923120  	65,599043  	957,045375  	1256,670793  	79,922327  	76,159184  	0,004009  	0,008344  	0,003963  	0,004021  	0,004333  	0,000000  	-0,000000  	25,603596  	20,062069  	22,166835  	33,608550  	49,741560  	46,878387  	48,696140  	54,378675  	65,517266  	63,474300  	65,645985  	72,746369  	25,271254  	23,368471  	19,304505  	74,841043  	0,023579  	0,011948  	-2785,128182  	4416,692954  	-0,012270  	-0,049999  	0,289983  	0,146937  	-2,319040  	9342,540362  	1113,148940  	0,161449  	-0,047951  
22,558000  	9,923120  	65,599230  	357,499067  	657,183579  	79,917641  	76,150946  	0,004008  	0,008409  	0,003960  	0,004004  	0,004379  	0,000001  	-0,000000  	25,598592  	20,067827  	22,159899  	33,612266  	49,743529  	46,879304  	48,690332  	54,375129  	65,514453  	63,479233  	65,649127  	72,753517  	25,257664  	23,361066  	19,307905  	74,833584  	0,009751  	0,004941  	-1151,746215  	7098,634446  	-0,021691  	-0,049988  	0,326771  	0,165577  	-2,615698  	9484,141367  	1108,799306  	0,160818  	-0,047941  
23,556000  	9,924313  	65,596151  	357,499067  	657,183579  	79,920015  	76,141990  	0,004008  	0,008391  	0,003962  	0,003986  	0,004391  	0,000001  	-0,000000  	25,605417  	20,065345  	22,157842  	33,608172  	49,744772  	46,876989  	48,691680  	54,375990  	65,508320  	63,468120  	65,644840  	72,748699  	25,254829  	23,360777  	19,304888  	74,826350  	-0,004450  	-0,002255  	525,632477  	7098,615208  	-0,021691  	-0,049988  	0,335731  	0,170117  	-2,695504  	9445,840940  	1091,407834  	0,158295  	-0,047941  
24,556000  	9,923518  	65,591547  	957,045375  	1256,670793  	79,926076  	76,138682  	0,004008  	0,008449  	0,003965  	0,003982  	0,004406  	0,000003  	-0,000000  	25,612903  	20,067327  	22,170265  	33,619255  	49,741982  	46,886886  	48,695167  	54,387343  	65,516896  	63,475320  	65,659529  	72,756945  	25,247295  	23,366868  	19,311094  	74,841558  	-0,007652  	-0,003877  	903,685111  	4413,529411  	-0,012262  	-0,049959  	0,348203  	0,176437  	-2,802566  	9570,834647  	1090,560502  	0,158172  	-0,047916  
25,555000  	9,922539  	65,593227  	57,725912  	1256,670793  	79,927013  	76,144081  	0,004006  	0,008326  	0,003961  	0,003951  	0,004355  	0,000001  	-0,000000  	25,601650  	20,057964  	22,178166  	33,609447  	49,736133  	46,879626  	48,689588  	54,369231  	65,501153  	63,482110  	65,647565  	72,748109  	25,233688  	23,343508  	19,305974  	74,831166  	-0,033128  	-0,016786  	3912,672752  	24485,501391  	-0,018197  	-0,049987  	0,307559  	0,155843  	-2,472528  	9304,994780  	1060,776811  	0,153853  	-0,047940  
26,562000  	9,923090  	65,602060  	657,272221  	1256,670793  	79,930887  	76,150821  	0,004009  	0,008370  	0,003964  	0,004037  	0,004387  	-0,000001  	-0,000000  	25,609785  	20,066806  	22,166802  	33,619728  	49,733492  	46,878488  	48,683681  	54,379994  	65,502403  	63,479917  	65,648763  	72,749950  	25,239570  	23,335207  	19,317672  	74,830214  	0,036988  	0,018742  	-4369,108281  	9724,396748  	-0,013768  	-0,050011  	0,332527  	0,168494  	-2,671221  	9400,413701  	1115,895705  	0,161847  	-0,047960  
27,553000  	9,922814  	65,614937  	657,272221  	1256,670793  	79,927076  	76,151289  	0,004007  	0,008490  	0,003963  	0,003996  	0,004330  	0,000001  	-0,000000  	25,607946  	20,049669  	22,156850  	33,610110  	49,736192  	46,885958  	48,697240  	54,375258  	65,508891  	63,473856  	65,658299  	72,755671  	25,226326  	23,308773  	19,302273  	74,827208  	0,003114  	0,001578  	-367,981115  	9719,939753  	-0,013762  	-0,049985  	0,287356  	0,145605  	-2,305746  	9657,528634  	1080,018290  	0,156643  	-0,047938  
28,554000  	9,922447  	65,626631  	1256,818530  	1256,670793  	79,920952  	76,151476  	0,004010  	0,008463  	0,003962  	0,004001  	0,004412  	0,000001  	-0,000000  	25,620683  	20,066917  	22,173381  	33,618119  	49,751245  	46,883690  	48,699312  	54,383570  	65,504690  	63,479552  	65,668859  	72,755478  	25,239188  	23,305912  	19,310974  	74,843125  	0,007765  	0,003934  	-917,602940  	-1,993177  	-0,011066  	-0,049989  	0,352581  	0,178655  	-2,824388  	9599,042647  	1138,357043  	0,165105  	-0,047942  
29,557000  	9,923946  	65,637082  	957,045375  	1256,670793  	79,918484  	76,155595  	0,004011  	0,008227  	0,003965  	0,003959  	0,004377  	0,000001  	-0,000001  	25,612065  	20,069311  	22,173028  	33,612581  	49,735072  	46,886688  	48,708929  	54,387250  	65,497734  	63,480016  	65,664243  	72,749390  	25,238975  	23,296753  	19,316768  	74,833386  	-0,026450  	-0,013402  	3126,270196  	4415,944519  	-0,012268  	-0,049990  	0,324615  	0,164485  	-2,595817  	9090,146924  	1165,055037  	0,168977  	-0,047943  
30,556000  	9,923579  	65,640876  	357,499067  	1256,670793  	79,919859  	76,159527  	0,004005  	0,008467  	0,003963  	0,003995  	0,004322  	0,000001  	-0,000000  	25,619671  	20,072192  	22,172790  	33,621186  	49,742605  	46,885249  	48,704474  	54,385416  	65,514351  	63,483444  	65,671229  	72,751947  	25,231537  	23,271708  	19,311461  	74,844821  	0,002244  	0,001137  	-265,266567  	16227,545647  	-0,015672  	-0,049988  	0,281302  	0,142538  	-2,247936  	9608,832286  	1030,986058  	0,149532  	-0,047941  
31,556000  	9,923304  	65,641623  	1256,818530  	1256,670793  	79,916578  	76,159933  	0,004007  	0,008414  	0,003962  	0,004013  	0,004318  	0,000001  	-0,000000  	25,608686  	20,074580  	22,167847  	33,618135  	49,740733  	46,873493  	48,703630  	54,381470  	65,504777  	63,476124  	65,663972  	72,750874  	25,227636  	23,268798  	19,304257  	74,833169  	0,017231  	0,008731  	-2036,826753  	-1,993183  	-0,011066  	-0,049989  	0,278213  	0,140973  	-2,221072  	9494,836537  	1081,169248  	0,156810  	-0,047942  
32,556000  	9,923487  	65,635091  	1256,818530  	1256,670793  	79,913579  	76,157936  	0,004008  	0,008494  	0,003962  	0,003876  	0,004397  	0,000002  	-0,000001  	25,606847  	20,066541  	22,163785  	33,616057  	49,736009  	46,884970  	48,697383  	54,376472  	65,496971  	63,482731  	65,656736  	72,747083  	25,215538  	23,258786  	19,305152  	74,822291  	-0,093786  	-0,047522  	11084,787482  	-1,992780  	-0,011064  	-0,049978  	0,340969  	0,172772  	-2,721348  	9667,690390  	1095,686856  	0,158916  	-0,047933  
33,555000  	9,923365  	65,630861  	1256,818530  	57,696365  	79,912423  	76,149292  	0,004008  	0,008389  	0,003963  	0,004038  	0,004377  	0,000001  	-0,000000  	25,614678  	20,077469  	22,178550  	33,627123  	49,741745  	46,892346  	48,706990  	54,386080  	65,497878  	63,484491  	65,667489  	72,749517  	25,213084  	23,268461  	19,304178  	74,836951  	0,037773  	0,019140  	-4464,193004  	-24490,228058  	-0,018198  	-0,049993  	0,324628  	0,164491  	-2,596087  	9439,533350  	1105,459409  	0,160333  	-0,047945  
34,554000  	9,922875  	65,628684  	1256,818530  	1256,670793  	79,912048  	76,146484  	0,004009  	0,008256  	0,003965  	0,004008  	0,004344  	0,000001  	-0,000001  	25,613922  	20,065867  	22,167937  	33,617831  	49,735069  	46,889161  	48,701207  	54,385852  	65,498080  	63,483402  	65,672728  	72,745513  	25,205858  	23,267931  	19,309154  	74,831389  	0,013147  	0,006662  	-1553,689059  	-1,993023  	-0,011065  	-0,049985  	0,298588  	0,151297  	-2,389388  	9153,244753  	1112,739396  	0,161389  	-0,047939  
35,560000  	9,922967  	65,621872  	1256,818530  	1256,670793  	79,908737  	76,147544  	0,004004  	0,008435  	0,003965  	0,003979  	0,004332  	0,000001  	-0,000000  	25,611198  	20,061258  	22,164606  	33,614095  	49,732900  	46,884752  	48,704276  	54,382492  	65,506592  	63,474201  	65,673097  	72,745811  	25,198582  	23,275473  	19,314877  	74,828518  	-0,010382  	-0,005261  	1226,854408  	-1,993029  	-0,011065  	-0,049985  	0,289104  	0,146491  	-2,310809  	9540,231941  	1009,583884  	0,146428  	-0,047939  
36,553000  	9,923028  	65,618887  	1256,818530  	57,696365  	79,908674  	76,142677  	0,004009  	0,008398  	0,003964  	0,004025  	0,004324  	-0,000000  	-0,000000  	25,613918  	20,069700  	22,174717  	33,618023  	49,736920  	46,886987  	48,707303  	54,384555  	65,497175  	63,476758  	65,672351  	72,751080  	25,195822  	23,286532  	19,316182  	74,829348  	0,026970  	0,013666  	-3186,785742  	-24494,236852  	-0,018201  	-0,050002  	0,283252  	0,143526  	-2,266919  	9459,056034  	1118,254110  	0,162189  	-0,047953  
37,553000  	9,922080  	65,617362  	957,045375  	-242,047242  	79,907050  	76,138464  	0,004011  	0,008349  	0,003961  	0,004079  	0,004365  	0,000002  	-0,000000  	25,612101  	20,072099  	22,169131  	33,621941  	49,733147  	46,889899  	48,703028  	54,383251  	65,494667  	63,476481  	65,670701  	72,746264  	25,191910  	23,287326  	19,309079  	74,834225  	0,070554  	0,035750  	-8336,580831  	-34181,279089  	-0,026841  	-0,049979  	0,315265  	0,159747  	-2,524857  	9354,378058  	1158,283448  	0,167995  	-0,047934  
38,558000  	9,922814  	65,617922  	357,499067  	357,439972  	79,905988  	76,146078  	0,004004  	0,008343  	0,003963  	0,004005  	0,004374  	0,000001  	-0,000000  	25,614206  	20,070100  	22,166919  	33,622314  	49,740124  	46,889341  	48,706627  	54,384573  	65,496216  	63,479842  	65,676664  	72,749034  	25,189728  	23,291460  	19,304920  	74,833809  	0,010989  	0,005568  	-1298,394173  	-1,684974  	-0,026848  	-0,049991  	0,322651  	0,163490  	-2,578071  	9340,707369  	1013,764052  	0,147034  	-0,047944  
