07/10/2020 12:45:03
Tempo T_f_e T_f_s AR AR T_q_e T_q_s Corrente_P_f Corrente_P_q Corrente_P_RESERVA Corrente_eletromag_f Corrente_eletromag_q AR AR T_1 T_2 T_3 T_4 T_5 T_6 T_7 T_8 T_9 T_10 T_11 T_12 T_13 T_14 T_15 T_16 Velocidade_f_(m/s) Vazao_f_(L/s) q_f_(W) AR AR AR Velocidade_q_(m/s) Vazao_q_(L/s) q_q_(W) DeltaP_q_(Pa) DeltaP_f_(Pa) DeltaP_f_(Psi) AR
0,009000  	13,525215  	51,030767  	57,725912  	57,696365  	79,888805  	75,919448  	0,004126  	0,012873  	0,003969  	0,004038  	0,004499  	0,000001  	-0,000000  	24,066283  	19,534585  	21,419189  	26,916302  	38,314344  	35,819141  	37,865040  	41,178772  	51,385406  	49,328485  	53,074517  	70,191935  	22,786609  	20,971811  	21,982265  	74,923683  	0,037691  	0,019099  	-2997,572146  	-1,524724  	-0,051169  	-0,049989  	0,421634  	0,213645  	-3,556504  	19110,168585  	3645,956050  	0,528801  	-0,047942  
2,546000  	13,526378  	51,031014  	657,272221  	657,183579  	79,888118  	75,916639  	0,004119  	0,012874  	0,003969  	0,004049  	0,004454  	-0,000000  	-0,000000  	24,068697  	19,536786  	21,431805  	26,915814  	38,318892  	35,824378  	37,860203  	41,171965  	51,381897  	49,333425  	53,074624  	70,180009  	22,799144  	20,987254  	21,974826  	74,917346  	0,046598  	0,023611  	-3705,794814  	-1,810733  	-0,018201  	-0,050002  	0,386036  	0,195607  	-3,257971  	19112,670822  	3497,362402  	0,507250  	-0,047953  
3,562000  	13,522153  	51,030921  	-242,047242  	-242,047242  	79,888836  	75,916265  	0,004125  	0,012870  	0,003966  	0,004085  	0,004538  	-0,000001  	-0,000000  	24,075329  	19,523818  	21,424530  	26,917140  	38,317060  	35,819923  	37,859740  	41,170919  	51,379128  	49,335575  	53,058682  	70,186524  	22,799252  	20,991103  	21,980910  	74,911122  	0,075167  	0,038088  	-5978,506804  	-0,000000  	-0,544592  	-0,050016  	0,452611  	0,229341  	-3,820881  	19103,868777  	3620,140693  	0,525057  	-0,047965  
4,546000  	13,517682  	51,031231  	-242,047242  	956,927186  	79,890211  	75,919198  	0,004120  	0,012904  	0,003966  	0,004025  	0,004448  	-0,000000  	-0,000000  	24,069334  	19,530166  	21,427872  	26,915787  	38,317434  	35,823875  	37,867076  	41,168002  	51,380635  	49,331719  	53,071099  	70,190016  	22,804836  	21,030418  	21,988516  	74,924118  	0,026952  	0,013657  	-2143,947271  	34193,813331  	-0,026854  	-0,050001  	0,380939  	0,193025  	-3,214580  	19176,537645  	3507,021978  	0,508651  	-0,047952  
5,552000  	13,520468  	51,031943  	1256,818530  	-242,047242  	79,891492  	75,923878  	0,004127  	0,012884  	0,003964  	0,004069  	0,004562  	-0,000002  	-0,000000  	24,060392  	19,520967  	21,418497  	26,914803  	38,310419  	35,809990  	37,853819  	41,170085  	51,376695  	49,324332  	53,060808  	70,170040  	22,796219  	21,025370  	21,978531  	74,911425  	0,062393  	0,031615  	-4962,865947  	-35522,026477  	-0,021702  	-0,050020  	0,471303  	0,238813  	-3,973718  	19133,398994  	3662,337787  	0,531177  	-0,047968  
6,547000  	13,525184  	51,032439  	1256,818530  	357,439972  	79,893179  	75,922693  	0,004125  	0,012859  	0,003964  	0,004023  	0,004402  	0,000001  	-0,000000  	24,062312  	19,526009  	21,421094  	26,910278  	38,309477  	35,814848  	37,859616  	41,166237  	51,369629  	49,320725  	53,063110  	70,172006  	22,790852  	21,040735  	21,975826  	74,904655  	0,025393  	0,012867  	-2019,572686  	-16230,440101  	-0,015671  	-0,049987  	0,344885  	0,174756  	-2,909945  	19078,915737  	3615,932281  	0,524447  	-0,047940  
7,550000  	13,529961  	51,033089  	1256,818530  	357,439972  	79,889867  	75,928122  	0,004122  	0,012862  	0,003965  	0,004074  	0,004486  	0,000001  	-0,000000  	24,073667  	19,526841  	21,427325  	26,924066  	38,303009  	35,816891  	37,864827  	41,179500  	51,380237  	49,327708  	53,068510  	70,178535  	22,800460  	21,053830  	21,978798  	74,912972  	0,066675  	0,033785  	-5302,293729  	-16232,130612  	-0,015673  	-0,049993  	0,410991  	0,208252  	-3,460085  	19087,020240  	3547,828036  	0,514569  	-0,047945  
8,549000  	13,529778  	51,033523  	1256,818530  	-242,047242  	79,888492  	75,933426  	0,004127  	0,012865  	0,003968  	0,004022  	0,004434  	0,000001  	-0,000000  	24,068494  	19,533384  	21,421283  	26,921480  	38,311603  	35,819884  	37,872847  	41,181092  	51,386688  	49,334493  	53,072275  	70,183834  	22,801605  	21,065088  	21,980444  	74,917195  	0,024353  	0,012340  	-1936,686956  	-35500,113287  	-0,021689  	-0,049985  	0,369787  	0,187374  	-3,107945  	19093,910765  	3664,371382  	0,531472  	-0,047939  
9,547000  	13,526256  	51,034390  	957,045375  	-242,047242  	79,892523  	75,925813  	0,004122  	0,012863  	0,003969  	0,004041  	0,004585  	0,000001  	-0,000000  	24,065585  	19,532809  	21,422473  	26,912460  	38,309477  	35,822350  	37,868380  	41,184352  	51,379343  	49,332286  	53,073570  	70,173750  	22,807723  	21,070955  	21,977601  	74,911501  	0,039702  	0,020117  	-3157,694780  	-34189,594878  	-0,026847  	-0,049993  	0,489231  	0,247897  	-4,123940  	19089,210493  	3549,155522  	0,514761  	-0,047945  
10,548000  	13,526685  	51,034513  	357,499067  	357,439972  	79,892585  	75,924128  	0,004125  	0,012864  	0,003968  	0,004075  	0,004527  	-0,000001  	-0,000000  	24,064381  	19,532564  	21,421895  	26,913800  	38,318749  	35,821452  	37,869890  	41,180584  	51,377553  	49,327241  	53,068611  	70,183578  	22,804410  	21,073118  	21,972065  	74,922828  	0,067580  	0,034243  	-5374,888646  	-1,685725  	-0,026860  	-0,050016  	0,443479  	0,224714  	-3,739919  	19089,835168  	3625,944912  	0,525899  	-0,047965  
11,549000  	13,527971  	51,034885  	1256,818530  	1256,670793  	79,894210  	75,921819  	0,004120  	0,012873  	0,003968  	0,004000  	0,004469  	0,000001  	-0,000000  	24,068919  	19,534589  	21,426922  	26,924963  	38,310794  	35,817364  	37,862172  	41,172596  	51,379637  	49,326592  	53,067079  	70,180739  	22,808191  	21,077405  	21,970881  	74,920635  	0,006597  	0,003343  	-524,673340  	-1,993142  	-0,011066  	-0,049988  	0,397519  	0,201426  	-3,355656  	19109,161182  	3518,941104  	0,510379  	-0,047941  
12,548000  	13,530237  	51,036248  	57,725912  	1256,670793  	79,892710  	75,918636  	0,004127  	0,012861  	0,003970  	0,003982  	0,004501  	0,000002  	-0,000000  	24,078805  	19,541437  	21,422991  	26,929451  	38,314360  	35,818667  	37,867447  	41,181733  	51,384952  	49,334245  	53,072880  	70,181758  	22,806303  	21,079755  	21,978336  	74,917949  	-0,008056  	-0,004082  	640,733241  	24478,845811  	-0,018192  	-0,049972  	0,423319  	0,214499  	-3,574955  	19085,146215  	3671,940874  	0,532570  	-0,047927  
13,549000  	13,530390  	51,036031  	957,045375  	1256,670793  	79,889149  	75,923348  	0,004121  	0,012838  	0,003968  	0,004077  	0,004536  	-0,000001  	-0,000000  	24,076890  	19,542945  	21,418980  	26,928675  	38,313729  	35,820855  	37,862686  	41,183158  	51,385789  	49,340059  	53,071582  	70,180630  	22,804269  	21,081449  	21,979529  	74,919909  	0,069409  	0,035170  	-5520,047326  	4417,886762  	-0,012274  	-0,050014  	0,450547  	0,228295  	-3,796980  	19034,337433  	3535,315779  	0,512754  	-0,047964  
14,547000  	13,531248  	51,038075  	357,499067  	657,183579  	79,887836  	75,924346  	0,004128  	0,012848  	0,003966  	0,004007  	0,004455  	0,000001  	-0,000000  	24,072058  	19,540318  	21,418430  	26,923375  	38,311874  	35,823857  	37,861853  	41,178581  	51,382979  	49,338762  	53,069549  	70,178824  	22,802294  	21,086248  	21,980328  	74,917889  	0,012530  	0,006349  	-996,565714  	7098,876739  	-0,021692  	-0,049990  	0,386722  	0,195955  	-3,257196  	19055,672594  	3675,979819  	0,533156  	-0,047943  
15,549000  	13,532993  	51,037703  	1256,818530  	657,183579  	79,888805  	75,920228  	0,004117  	0,012859  	0,003967  	0,004027  	0,004620  	-0,000000  	-0,000000  	24,071653  	19,536444  	21,421329  	26,915973  	38,318110  	35,825191  	37,867488  	41,180893  	51,376019  	49,331639  	53,071710  	70,176612  	22,798623  	21,092598  	21,979689  	74,911175  	0,028840  	0,014613  	-2293,536231  	-9726,546736  	-0,013766  	-0,050002  	0,517593  	0,262268  	-4,365057  	19079,785188  	3451,451174  	0,500591  	-0,047953  
16,546000  	13,533054  	51,037022  	1256,818530  	1256,670793  	79,890929  	75,922786  	0,004128  	0,012875  	0,003968  	0,004027  	0,004423  	-0,000000  	-0,000000  	24,077882  	19,533576  	21,423976  	26,916230  	38,320333  	35,825910  	37,867694  	41,181838  	51,372392  	49,329453  	53,069674  	70,175931  	22,793889  	21,103356  	21,978818  	74,907774  	0,028679  	0,014532  	-2280,750458  	-1,993690  	-0,011069  	-0,050004  	0,361460  	0,183155  	-3,048000  	19114,492496  	3693,964424  	0,535764  	-0,047955  
17,548000  	13,533361  	51,036155  	57,725912  	1256,670793  	79,891866  	75,919885  	0,004118  	0,012821  	0,003964  	0,004076  	0,004495  	0,000000  	-0,000000  	24,087669  	19,539981  	21,426697  	26,918606  	38,323366  	35,832794  	37,882005  	41,184945  	51,382322  	49,337662  	53,068664  	70,185887  	22,786003  	21,110151  	21,988745  	74,919364  	0,068534  	0,034727  	-5450,031984  	24490,124965  	-0,018200  	-0,049998  	0,418519  	0,212067  	-3,532561  	18996,972958  	3464,005798  	0,502412  	-0,047950  
18,548000  	13,534340  	51,036712  	1256,818530  	657,183579  	79,889617  	75,915828  	0,004129  	0,012843  	0,003967  	0,003985  	0,004499  	0,000000  	-0,000000  	24,076625  	19,540611  	21,434503  	26,918785  	38,311807  	35,829908  	37,875332  	41,185049  	51,384662  	49,336609  	53,067506  	70,177430  	22,792284  	21,097481  	21,985927  	74,925087  	-0,005616  	-0,002846  	446,615848  	-9725,153582  	-0,013764  	-0,049994  	0,421510  	0,213582  	-3,559420  	19044,406514  	3705,812938  	0,537483  	-0,047946  
19,545000  	13,532595  	51,035690  	1256,818530  	-242,047242  	79,885774  	75,914705  	0,004119  	0,012884  	0,003964  	0,004048  	0,004452  	0,000001  	-0,000000  	24,067460  	19,531039  	21,414325  	26,920653  	38,309938  	35,818935  	37,866166  	41,182340  	51,379430  	49,328778  	53,059385  	70,176576  	22,796441  	21,077553  	21,976978  	74,916026  	0,045154  	0,022880  	-3590,852490  	-35501,236640  	-0,021689  	-0,049987  	0,384439  	0,194798  	-3,244154  	19134,046307  	3487,858171  	0,505871  	-0,047940  
20,548000  	13,528002  	51,034947  	1256,818530  	956,927186  	79,886524  	75,920384  	0,004125  	0,012883  	0,003967  	0,004023  	0,004478  	0,000001  	-0,000000  	24,068344  	19,528144  	21,420305  	26,919144  	38,308992  	35,817782  	37,866546  	41,175942  	51,374488  	49,325022  	53,049970  	70,175332  	22,800481  	21,051212  	21,975470  	74,918005  	0,025335  	0,012838  	-2014,970138  	-4420,058993  	-0,012269  	-0,049993  	0,404605  	0,205016  	-3,410096  	19131,286560  	3625,026970  	0,525766  	-0,047945  
21,548000  	13,522061  	51,035381  	57,725912  	1256,670793  	79,885931  	75,922287  	0,004121  	0,012877  	0,003965  	0,004086  	0,004520  	-0,000000  	-0,000000  	24,064107  	19,527626  	21,426660  	26,919499  	38,306664  	35,819135  	37,859792  	41,183746  	51,369867  	49,319518  	53,051719  	70,172863  	22,803339  	21,019724  	21,976943  	74,923188  	0,076582  	0,038804  	-6091,747390  	24491,794689  	-0,018202  	-0,050002  	0,438408  	0,222144  	-3,692665  	19119,197720  	3525,267843  	0,511297  	-0,047953  
22,547000  	13,516916  	51,035442  	657,272221  	1256,670793  	79,886368  	75,917045  	0,004127  	0,012872  	0,003964  	0,004070  	0,004544  	0,000000  	-0,000000  	24,070096  	19,533342  	21,425302  	26,912843  	38,316189  	35,821478  	37,867346  	41,185066  	51,375939  	49,329319  	53,060664  	70,168931  	22,805344  	20,996362  	21,975433  	74,919186  	0,063095  	0,031971  	-5019,643743  	9722,051486  	-0,013765  	-0,049997  	0,457118  	0,231625  	-3,855777  	19107,374880  	3666,058983  	0,531717  	-0,047949  
23,549000  	13,510393  	51,035907  	657,272221  	1256,670793  	79,886306  	75,919198  	0,004123  	0,012826  	0,003966  	0,004085  	0,004411  	0,000001  	-0,000000  	24,066764  	19,531471  	21,430378  	26,916512  	38,313887  	35,821224  	37,862689  	41,182061  	51,374527  	49,335654  	53,056729  	70,169720  	22,833255  	20,961511  	21,976832  	74,918230  	0,075781  	0,038399  	-6029,997835  	9719,578779  	-0,013761  	-0,049983  	0,351444  	0,178079  	-2,962764  	19007,847820  	3578,706197  	0,519047  	-0,047937  
24,546000  	13,503105  	51,036155  	1256,818530  	57,696365  	79,889430  	75,919697  	0,004124  	0,012886  	0,003967  	0,004030  	0,004573  	-0,000001  	-0,000000  	24,067982  	19,534103  	21,418985  	26,909099  	38,320658  	35,820255  	37,874284  	41,170473  	51,371668  	49,323598  	53,056625  	70,179054  	22,832390  	20,922811  	21,971952  	74,918163  	0,031269  	0,015844  	-2488,667567  	-24499,789972  	-0,018205  	-0,050015  	0,479873  	0,243155  	-4,048127  	19137,589905  	3600,482609  	0,522206  	-0,047964  
25,549000  	13,502921  	51,037300  	1256,818530  	1256,670793  	79,883431  	75,912864  	0,004123  	0,012858  	0,003966  	0,004094  	0,004514  	0,000001  	-0,000000  	24,062988  	19,535569  	21,430081  	26,934821  	38,314999  	35,809123  	37,862097  	41,175726  	51,375437  	49,335492  	53,066394  	70,171463  	22,857407  	20,888393  	21,976838  	74,917941  	0,082952  	0,042032  	-6602,165817  	-1,993287  	-0,011067  	-0,049992  	0,433020  	0,219414  	-3,653651  	19077,580079  	3567,005966  	0,517350  	-0,047945  
26,546000  	13,508556  	51,037362  	1256,818530  	657,183579  	79,878558  	75,914923  	0,004122  	0,012866  	0,003966  	0,004066  	0,004452  	0,000001  	-0,000001  	24,063720  	19,528072  	21,406990  	26,908308  	38,296639  	35,817520  	37,864789  	41,183153  	51,373067  	49,323580  	53,044964  	70,174880  	22,843186  	20,837032  	21,969267  	74,920282  	0,059956  	0,030380  	-4771,206548  	-9724,595892  	-0,013763  	-0,049991  	0,384551  	0,194855  	-3,239027  	19094,042350  	3553,385117  	0,515375  	-0,047943  
27,547000  	13,513058  	51,037269  	357,499067  	657,183579  	79,881557  	75,916109  	0,004126  	0,012843  	0,003966  	0,004151  	0,004567  	-0,000002  	-0,000000  	24,074305  	19,540553  	21,437695  	26,933794  	38,311605  	35,834381  	37,862704  	41,172177  	51,376155  	49,338188  	53,060023  	70,178876  	22,874119  	20,825191  	21,971546  	74,925843  	0,128607  	0,065166  	-10233,126132  	7103,121029  	-0,021705  	-0,050023  	0,475400  	0,240889  	-4,006068  	19045,156407  	3632,716500  	0,526881  	-0,047971  
28,548000  	13,515691  	51,037641  	-242,047242  	1256,670793  	79,884619  	75,917295  	0,004120  	0,012859  	0,003968  	0,003981  	0,004506  	0,000002  	-0,000000  	24,074038  	19,530495  	21,428897  	26,929019  	38,315847  	35,828418  	37,872942  	41,184697  	51,376457  	49,326569  	53,057124  	70,175565  	22,868927  	20,802208  	21,971234  	74,915875  	-0,008781  	-0,004450  	698,672389  	35494,141040  	-0,021688  	-0,049977  	0,427233  	0,216482  	-3,601884  	19080,813815  	3518,729271  	0,510349  	-0,047931  
29,548000  	13,519060  	51,037424  	1256,818530  	1256,670793  	79,884900  	75,913894  	0,004125  	0,012851  	0,003964  	0,004093  	0,004612  	-0,000000  	-0,000000  	24,087821  	19,545417  	21,446391  	26,930918  	38,326272  	35,838032  	37,880696  	41,196278  	51,385577  	49,342890  	53,056132  	70,192064  	22,897369  	20,809514  	21,989901  	74,932914  	0,081629  	0,041362  	-6494,097470  	-1,993636  	-0,011069  	-0,050002  	0,510605  	0,258728  	-4,308763  	19063,674517  	3622,421426  	0,525388  	-0,047953  
30,547000  	13,520468  	51,037796  	1256,818530  	657,183579  	79,888836  	75,911772  	0,004118  	0,012898  	0,003967  	0,003973  	0,004554  	-0,000000  	-0,000000  	24,076180  	19,541406  	21,430137  	26,922904  	38,326070  	35,825788  	37,884099  	41,190950  	51,378937  	49,334724  	53,054907  	70,182916  	22,888311  	20,785622  	21,983630  	74,925612  	-0,015544  	-0,007876  	1236,619662  	-9726,804570  	-0,013766  	-0,050003  	0,464781  	0,235508  	-3,928054  	19165,079847  	3477,040576  	0,504302  	-0,047954  
31,551000  	13,517161  	51,038446  	1256,818530  	657,183579  	79,886056  	75,915391  	0,004127  	0,012858  	0,003968  	0,004118  	0,004625  	-0,000001  	-0,000000  	24,071453  	19,529124  	21,427310  	26,928739  	38,320744  	35,829305  	37,864693  	41,177485  	51,372800  	49,332263  	53,051939  	70,181685  	22,883851  	20,788322  	21,978112  	74,924248  	0,102141  	0,051756  	-8126,653835  	-9728,847293  	-0,013769  	-0,050015  	0,521531  	0,264264  	-4,400583  	19078,814572  	3666,157838  	0,531731  	-0,047964  
32,547000  	13,511833  	51,038880  	57,725912  	1256,670793  	79,882307  	75,916203  	0,004120  	0,012869  	0,003966  	0,004154  	0,004560  	0,000000  	-0,000000  	24,080120  	19,535452  	21,425623  	26,931591  	38,321453  	35,839448  	37,878609  	41,197861  	51,379634  	49,340588  	53,060613  	70,184610  	22,881288  	20,800053  	21,991533  	74,928353  	0,131705  	0,066736  	-10480,429922  	24490,878224  	-0,018201  	-0,049999  	0,469411  	0,237854  	-3,956257  	19100,766626  	3513,574673  	0,509601  	-0,047951  
33,549000  	13,508403  	51,038291  	1256,818530  	-242,047242  	79,883431  	75,912240  	0,004126  	0,012887  	0,003968  	0,004006  	0,004532  	-0,000001  	-0,000000  	24,076085  	19,535971  	21,426512  	26,927485  	38,318993  	35,822095  	37,865683  	41,184619  	51,364509  	49,336263  	53,056614  	70,172095  	22,860620  	20,816807  	21,987927  	74,923978  	0,011645  	0,005900  	-926,690728  	-35515,083529  	-0,021698  	-0,050009  	0,447781  	0,226894  	-3,778793  	19139,481616  	3634,615934  	0,527156  	-0,047959  
34,547000  	13,506627  	51,038663  	1256,818530  	357,439972  	79,882807  	75,918293  	0,004120  	0,012794  	0,003966  	0,004072  	0,004537  	-0,000001  	-0,000000  	24,069678  	19,538049  	21,436057  	26,930185  	38,312809  	35,817128  	37,868984  	41,184830  	51,374352  	49,337611  	53,054754  	70,166917  	22,861540  	20,834731  	21,987960  	74,923205  	0,065207  	0,033041  	-5189,574833  	-16238,519365  	-0,015679  	-0,050015  	0,451371  	0,228713  	-3,802683  	18939,874272  	3501,309554  	0,507822  	-0,047964  
35,550000  	13,505065  	51,037827  	357,499067  	357,439972  	79,884494  	75,915984  	0,004124  	0,012890  	0,003969  	0,003956  	0,004458  	0,000000  	-0,000000  	24,067392  	19,535643  	21,430335  	26,925845  	38,318046  	35,831169  	37,873537  	41,181219  	51,368171  	49,335098  	53,051067  	70,169054  	22,851425  	20,849036  	21,980297  	74,918942  	-0,029224  	-0,014808  	2325,843438  	-1,685168  	-0,026851  	-0,049997  	0,388708  	0,196961  	-3,278063  	19146,036812  	3605,849040  	0,522984  	-0,047949  
36,548000  	13,505555  	51,039004  	-242,047242  	956,927186  	79,882369  	75,907560  	0,004119  	0,012869  	0,003968  	0,003995  	0,004537  	-0,000001  	-0,000000  	24,061249  	19,527547  	21,423622  	26,921892  	38,308376  	35,821660  	37,863753  	41,174046  	51,361053  	49,326814  	53,041594  	70,164440  	22,845256  	20,848487  	21,975604  	74,914831  	0,002673  	0,001355  	-212,756162  	34199,752730  	-0,026858  	-0,050011  	0,451206  	0,228629  	-3,811159  	19100,908822  	3500,236267  	0,507666  	-0,047960  
37,546000  	13,509260  	51,036898  	1256,818530  	57,696365  	79,880089  	75,907248  	0,004125  	0,012861  	0,003967  	0,004047  	0,004477  	0,000001  	-0,000000  	24,068229  	19,527268  	21,423655  	26,917200  	38,312590  	35,825084  	37,865093  	41,180431  	51,359948  	49,327062  	53,042810  	70,170994  	22,834967  	20,868850  	21,978573  	74,920067  	0,044897  	0,022750  	-3572,747655  	-24487,670323  	-0,018196  	-0,049987  	0,404245  	0,204834  	-3,412812  	19084,810886  	3611,250777  	0,523768  	-0,047940  
