07/01/2020 15:55:45
Tempo T_f_e T_f_s AR AR T_q_e T_q_s Corrente_P_f Corrente_P_q Corrente_P_RESERVA Corrente_eletromag_f Corrente_eletromag_q AR AR T_1 T_2 T_3 T_4 T_5 T_6 T_7 T_8 T_9 T_10 T_11 T_12 T_13 T_14 T_15 T_16 Velocidade_f_(m/s) Vazao_f_(L/s) q_f_(W) AR AR AR Velocidade_q_(m/s) Vazao_q_(L/s) q_q_(W) DeltaP_q_(Pa) DeltaP_f_(Pa) DeltaP_f_(Psi) AR
0,006000  	9,935326  	64,045595  	1256,818530  	956,927186  	80,223759  	74,844765  	0,004010  	0,006180  	0,003959  	0,003943  	0,004241  	0,000000  	-0,000000  	24,997519  	19,661505  	21,567844  	32,435662  	47,337929  	45,189944  	46,963936  	52,660567  	63,387006  	61,925935  	64,413905  	71,196411  	25,711462  	23,162124  	19,452993  	73,074139  	-0,039643  	-0,020087  	4550,850954  	-4420,514146  	-0,012270  	-0,049998  	0,216888  	0,109899  	-2,478713  	4677,570469  	1145,326342  	0,166116  	-0,047950  
2,591000  	9,933796  	64,050818  	657,272221  	357,439972  	80,223509  	74,848446  	0,004003  	0,006071  	0,003961  	0,003991  	0,004215  	0,000001  	-0,000000  	24,996237  	19,664443  	21,575579  	32,426168  	47,340062  	45,187597  	46,975923  	52,654906  	63,386968  	61,920515  	64,414903  	71,210513  	25,725323  	23,176904  	19,451577  	73,076210  	-0,000768  	-0,000389  	88,127689  	-7102,647324  	-0,021693  	-0,049993  	0,196160  	0,099396  	-2,240181  	4441,674676  	1001,555421  	0,145263  	-0,047945  
3,590000  	9,933062  	64,047740  	657,272221  	1256,670793  	80,221478  	74,860267  	0,004008  	0,006041  	0,003964  	0,003951  	0,004243  	0,000001  	-0,000000  	24,990933  	19,659930  	21,568195  	32,429733  	47,328459  	45,184428  	46,980430  	52,654213  	63,384449  	61,922722  	64,422398  	71,189514  	25,743322  	23,193494  	19,450485  	73,059035  	-0,032869  	-0,016655  	3773,507025  	9719,792373  	-0,013762  	-0,049984  	0,218620  	0,110776  	-2,490245  	4377,399657  	1098,129994  	0,159270  	-0,047938  
4,594000  	9,932389  	64,041833  	1256,818530  	57,696365  	80,215354  	74,863262  	0,004012  	0,006020  	0,003961  	0,004027  	0,004145  	0,000000  	-0,000000  	25,001192  	19,663768  	21,563260  	32,442988  	47,340784  	45,187109  	46,981932  	52,660925  	63,385819  	61,921168  	64,432084  	71,197449  	25,749467  	23,208876  	19,454031  	73,066558  	0,028278  	0,014329  	-3246,152811  	-24490,782294  	-0,018198  	-0,049994  	0,140700  	0,071294  	-1,599952  	4331,426977  	1183,922278  	0,171713  	-0,047946  
5,591000  	9,931777  	64,046527  	57,725912  	1256,670793  	80,213355  	74,848633  	0,004009  	0,006142  	0,003960  	0,004021  	0,004230  	0,000002  	-0,000000  	24,987030  	19,664416  	21,562798  	32,428513  	47,335124  	45,184726  	46,968098  	52,646065  	63,381444  	61,912377  	64,420636  	71,192892  	25,753126  	23,227015  	19,441801  	73,071104  	0,023321  	0,011817  	-2677,320616  	24478,831463  	-0,018192  	-0,049972  	0,208179  	0,105486  	-2,372864  	4595,374425  	1126,790972  	0,163427  	-0,047927  
6,594000  	9,929942  	64,042424  	657,272221  	1256,670793  	80,215167  	74,820248  	0,004010  	0,006159  	0,003961  	0,004042  	0,004292  	0,000001  	-0,000001  	24,995707  	19,666498  	21,565346  	32,433417  	47,337975  	45,183318  	46,973061  	52,654169  	63,384092  	61,922885  	64,420709  	71,189778  	25,759581  	23,235444  	19,442878  	73,062584  	0,040284  	0,020412  	-4624,593756  	9721,264036  	-0,013764  	-0,049992  	0,257238  	0,130344  	-2,948540  	4630,767248  	1137,446162  	0,164973  	-0,047945  
7,595000  	9,929667  	64,044009  	657,272221  	357,439972  	80,215354  	74,795669  	0,004010  	0,006101  	0,003964  	0,004044  	0,004182  	0,000001  	-0,000000  	24,997578  	19,660155  	21,571528  	32,424200  	47,338454  	45,178288  	46,971023  	52,650195  	63,376891  	61,915448  	64,425671  	71,192254  	25,759208  	23,246871  	19,444190  	73,062589  	0,042409  	0,021489  	-4868,668634  	-7101,355171  	-0,021689  	-0,049983  	0,170474  	0,086380  	-1,962989  	4506,563051  	1131,592516  	0,164124  	-0,047937  
8,619000  	9,928994  	64,052652  	1256,818530  	956,927186  	80,212542  	74,778077  	0,004004  	0,005955  	0,003963  	0,004030  	0,004214  	-0,000001  	-0,000000  	24,988349  	19,663564  	21,567933  	32,431361  	47,337112  	45,183033  	46,969519  	52,657292  	63,381263  	61,918422  	64,427600  	71,196007  	25,768827  	23,253795  	19,446909  	73,065161  	0,030932  	0,015674  	-3551,763618  	-4421,259677  	-0,012272  	-0,050008  	0,196100  	0,099365  	-2,264222  	4192,674858  	1008,411743  	0,146258  	-0,047958  
9,594000  	9,928015  	64,056227  	57,725912  	1256,670793  	80,209480  	74,775020  	0,004006  	0,005996  	0,003963  	0,004090  	0,004152  	0,000001  	-0,000000  	24,991006  	19,663368  	21,556394  	32,435192  	47,333260  	45,185623  	46,968496  	52,657952  	63,380278  	61,916881  	64,420968  	71,197566  	25,756344  	23,249287  	19,447606  	73,055844  	0,079292  	0,040178  	-9105,382275  	24484,986664  	-0,018197  	-0,049986  	0,146986  	0,074479  	-1,697132  	4280,403131  	1047,501955  	0,151927  	-0,047939  
10,595000  	9,927953  	64,055978  	1256,818530  	1256,670793  	80,208418  	74,763417  	0,004006  	0,006104  	0,003961  	0,003950  	0,004286  	0,000002  	-0,000000  	24,998613  	19,660184  	21,558313  	32,435479  	47,334123  	45,182801  	46,969948  	52,662488  	63,381850  	61,920463  	64,427354  	71,199933  	25,764683  	23,241307  	19,448945  	73,064297  	-0,034007  	-0,017232  	3905,108993  	-1,992639  	-0,011063  	-0,049974  	0,252691  	0,128040  	-2,923285  	4513,031231  	1048,342225  	0,152049  	-0,047929  
11,592000  	9,927036  	64,057004  	1256,818530  	1256,670793  	80,207574  	74,749880  	0,004008  	0,006255  	0,003961  	0,004004  	0,004308  	-0,000002  	-0,000000  	24,996050  	19,660724  	21,564040  	32,436339  	47,337332  	45,182567  	46,965345  	52,666281  	63,379733  	61,925073  	64,431487  	71,199333  	25,767440  	23,232787  	19,448463  	73,068021  	0,010166  	0,005151  	-1167,478438  	-1,994324  	-0,011073  	-0,050021  	0,270578  	0,137104  	-3,137503  	4838,143057  	1101,385158  	0,159742  	-0,047970  
12,594000  	9,926363  	64,050351  	1256,818530  	1256,670793  	80,208512  	74,749880  	0,004009  	0,006164  	0,003960  	0,004041  	0,004199  	0,000004  	-0,000000  	24,993703  	19,666505  	21,566841  	32,437207  	47,338749  	45,185880  	46,963315  	52,664899  	63,379667  	61,922155  	64,429641  	71,196004  	25,764029  	23,217152  	19,447333  	73,064567  	0,039541  	0,020036  	-4540,253341  	-1,991687  	-0,011058  	-0,049947  	0,184171  	0,093321  	-2,135927  	4641,771572  	1126,882766  	0,163441  	-0,047906  
13,665000  	9,925996  	64,041056  	-242,047242  	956,927186  	80,214230  	74,737341  	0,004008  	0,006167  	0,003963  	0,004026  	0,004237  	0,000004  	-0,000000  	24,994466  	19,672796  	21,567880  	32,437529  	47,345218  	45,187154  	46,958797  	52,670560  	63,385157  	61,923565  	64,434156  	71,195669  	25,772130  	23,206900  	19,447792  	73,071634  	0,028101  	0,014239  	-3226,117951  	34161,174186  	-0,026828  	-0,049947  	0,213795  	0,108331  	-2,487784  	4649,627054  	1102,762072  	0,159942  	-0,047906  
14,595000  	9,925445  	64,041367  	-242,047242  	357,439972  	80,215417  	74,751938  	0,004008  	0,006235  	0,003961  	0,003976  	0,004222  	0,000001  	-0,000000  	24,992807  	19,667903  	21,568299  	32,438604  	47,343240  	45,185525  	46,961948  	52,674754  	63,384487  	61,926232  	64,431641  	71,199066  	25,775185  	23,197099  	19,443189  	73,079434  	-0,013097  	-0,006636  	1503,592751  	30934,993782  	-0,051169  	-0,049986  	0,202232  	0,102473  	-2,347480  	4795,784012  	1093,759178  	0,158636  	-0,047940  
15,599000  	9,925262  	64,045657  	657,272221  	357,439972  	80,214729  	74,769218  	0,004006  	0,006171  	0,003960  	0,003916  	0,004211  	0,000004  	-0,000001  	24,987367  	19,661576  	21,564253  	32,437430  	47,337613  	45,183744  	46,964268  	52,666299  	63,378469  	61,923271  	64,426523  	71,197617  	25,772679  	23,177776  	19,445035  	73,076732  	-0,061199  	-0,031010  	7026,708507  	-7097,607200  	-0,021677  	-0,049953  	0,193130  	0,097860  	-2,234452  	4657,070803  	1062,302007  	0,154074  	-0,047911  
16,593000  	9,924711  	64,043481  	1256,818530  	956,927186  	80,213855  	74,785188  	0,004009  	0,006191  	0,003956  	0,004016  	0,004298  	0,000000  	-0,000000  	24,989897  	19,667103  	21,564685  	32,440276  	47,339138  	45,188439  	46,961755  	52,665872  	63,382331  	61,926954  	64,429037  	71,195275  	25,778104  	23,167282  	19,451863  	73,078240  	0,019321  	0,009790  	-2218,262921  	-4420,433216  	-0,012270  	-0,049997  	0,262536  	0,133029  	-3,028071  	4701,041410  	1116,771281  	0,161974  	-0,047949  
17,595000  	9,924497  	64,045843  	1256,818530  	1256,670793  	80,215948  	74,796854  	0,004008  	0,006200  	0,003963  	0,003980  	0,004220  	0,000001  	-0,000001  	25,001817  	19,673072  	21,574914  	32,449412  	47,338878  	45,193240  	46,967499  	52,677672  	63,387507  	61,935928  	64,431966  	71,201046  	25,783495  	23,165172  	19,449496  	73,084574  	-0,009642  	-0,004886  	1107,088914  	-1,993200  	-0,011066  	-0,049990  	0,200555  	0,101623  	-2,309115  	4719,764680  	1095,806895  	0,158933  	-0,047943  
18,600000  	9,924191  	64,036952  	1256,818530  	1256,670793  	80,216323  	74,807709  	0,004013  	0,006205  	0,003960  	0,004137  	0,004219  	0,000001  	-0,000000  	25,000852  	19,675291  	21,574403  	32,447441  	47,340116  	45,187509  	46,959460  	52,675444  	63,380412  	61,933639  	64,435834  	71,199539  	25,784818  	23,154078  	19,454164  	73,082565  	0,117314  	0,059444  	-13467,708523  	-1,993263  	-0,011067  	-0,049992  	0,199580  	0,101129  	-2,293451  	4729,986569  	1198,355153  	0,173807  	-0,047944  
19,597000  	9,923916  	64,031450  	1256,818530  	1256,670793  	80,220353  	74,826580  	0,004010  	0,006167  	0,003964  	0,004024  	0,004185  	0,000001  	-0,000000  	24,994857  	19,673754  	21,566767  	32,442988  	47,329849  	45,188036  	46,956919  	52,667432  	63,381658  	61,925124  	64,427330  	71,191493  	25,786333  	23,145902  	19,453314  	73,085074  	0,025943  	0,013145  	-2977,972966  	-1,993146  	-0,011066  	-0,049988  	0,172531  	0,087423  	-1,977184  	4647,794769  	1136,005699  	0,164764  	-0,047941  
20,598000  	9,923548  	64,032818  	57,725912  	57,696365  	80,230852  	74,835626  	0,004010  	0,006151  	0,003960  	0,003974  	0,004266  	-0,000000  	-0,000001  	24,996300  	19,669587  	21,565466  	32,445823  	47,329500  	45,188747  	46,958389  	52,669571  	63,384863  	61,925909  	64,430512  	71,199720  	25,795525  	23,139202  	19,447427  	73,085513  	-0,014547  	-0,007371  	1669,927765  	-1,525033  	-0,051180  	-0,050000  	0,236703  	0,119939  	-2,713327  	4613,816838  	1140,369455  	0,165397  	-0,047952  
21,597000  	9,922967  	64,026973  	1256,818530  	1256,670793  	80,238194  	74,842519  	0,004011  	0,006202  	0,003962  	0,004072  	0,004224  	0,000001  	-0,000000  	25,000590  	19,677660  	21,581656  	32,444067  	47,341525  	45,189245  	46,958398  	52,670323  	63,387745  	61,930129  	64,431678  	71,202701  	25,818665  	23,133546  	19,462706  	73,097434  	0,065297  	0,033087  	-7494,957312  	-1,993000  	-0,011065  	-0,049984  	0,203269  	0,102998  	-2,330272  	4723,268660  	1154,103281  	0,167389  	-0,047938  
22,594000  	9,921805  	64,029958  	1256,818530  	1256,670793  	80,243068  	74,849693  	0,004011  	0,006177  	0,003963  	0,004042  	0,004228  	0,000001  	-0,000000  	24,986699  	19,654620  	21,565767  	32,433431  	47,328130  	45,178142  	46,946694  	52,661879  	63,383827  	61,928039  	64,431112  	71,203319  	25,807316  	23,118915  	19,455187  	73,087705  	0,040548  	0,020546  	-4654,513339  	-1,993002  	-0,011065  	-0,049984  	0,207101  	0,104939  	-2,373183  	4671,142614  	1156,221609  	0,167696  	-0,047938  
23,598000  	9,922080  	64,033315  	1256,818530  	1256,670793  	80,243599  	74,847042  	0,004006  	0,006169  	0,003964  	0,003964  	0,004234  	0,000000  	-0,000000  	24,999205  	19,666656  	21,584349  	32,436518  	47,347132  	45,190856  	46,962784  	52,674756  	63,383405  	61,931008  	64,436424  	71,201371  	25,811063  	23,127912  	19,452280  	73,097277  	-0,022245  	-0,011272  	2553,641487  	-1,993558  	-0,011068  	-0,050000  	0,211586  	0,107212  	-2,426014  	4654,160369  	1052,049299  	0,152587  	-0,047951  
24,594000  	9,923548  	64,026725  	1256,818530  	1256,670793  	80,244662  	74,853655  	0,004008  	0,006205  	0,003964  	0,004052  	0,004261  	0,000002  	-0,000000  	25,002303  	19,673402  	21,585075  	32,446087  	47,348601  	45,190890  	46,962076  	52,666542  	63,381562  	61,931353  	64,435587  	71,199229  	25,814223  	23,124980  	19,464154  	73,094975  	0,048858  	0,024757  	-5607,956019  	-1,992524  	-0,011063  	-0,049971  	0,232702  	0,117912  	-2,665386  	4730,133718  	1091,506689  	0,158310  	-0,047927  
25,597000  	9,922967  	64,026507  	1256,818530  	1256,670793  	80,247036  	74,850629  	0,004004  	0,006203  	0,003963  	0,003994  	0,004195  	-0,000001  	-0,000000  	24,993429  	19,668213  	21,574348  	32,433186  	47,340234  	45,190575  	46,955211  	52,673922  	63,386708  	61,930132  	64,426416  	71,199210  	25,798963  	23,120838  	19,454742  	73,089245  	0,001913  	0,000969  	-219,526037  	-1,993970  	-0,011071  	-0,050012  	0,181016  	0,091722  	-2,075450  	4726,971433  	1015,614058  	0,147302  	-0,047961  
26,597000  	9,922172  	64,020973  	1256,818530  	1256,670793  	80,250348  	74,855433  	0,004004  	0,006200  	0,003966  	0,004017  	0,004207  	0,000001  	-0,000001  	25,004274  	19,666206  	21,568899  	32,433728  	47,340769  	45,187744  	46,945002  	52,658666  	63,368300  	61,917313  	64,439880  	71,194824  	25,795111  	23,104111  	19,444860  	73,100971  	0,020399  	0,010337  	-2341,273977  	-1,993336  	-0,011067  	-0,049994  	0,190374  	0,096464  	-2,182136  	4720,109913  	1008,051627  	0,146206  	-0,047946  
27,592000  	9,921988  	64,019761  	1256,818530  	1256,670793  	80,248567  	74,869344  	0,004006  	0,006180  	0,003962  	0,004004  	0,004262  	0,000002  	-0,000000  	24,986637  	19,663550  	21,566011  	32,443237  	47,330711  	45,182203  	46,943087  	52,660584  	63,364157  	61,920793  	64,407548  	71,184244  	25,786519  	23,088797  	19,458007  	73,091063  	0,009983  	0,005059  	-1145,776210  	-1,992843  	-0,011064  	-0,049980  	0,233822  	0,118479  	-2,672365  	4677,310837  	1062,407923  	0,154089  	-0,047934  
28,598000  	9,920459  	64,017150  	1256,818530  	1256,670793  	80,248442  	74,862295  	0,004007  	0,006189  	0,003966  	0,004004  	0,004232  	0,000002  	-0,000000  	24,985202  	19,661885  	21,558669  	32,443886  	47,333087  	45,176880  	46,946456  	52,664250  	63,367374  	61,919706  	64,421536  	71,192412  	25,771034  	23,058856  	19,452226  	73,092786  	0,009965  	0,005049  	-1143,649679  	-1,992639  	-0,011063  	-0,049974  	0,209831  	0,106323  	-2,401249  	4696,705473  	1073,211396  	0,155656  	-0,047929  
29,603000  	9,919388  	64,013295  	1256,818530  	956,927186  	80,247130  	74,863137  	0,004006  	0,006203  	0,003962  	0,004069  	0,004334  	0,000001  	-0,000000  	24,988749  	19,657551  	21,567326  	32,434873  	47,332168  	45,182701  	46,945556  	52,656340  	63,367117  	61,920920  	64,425286  	71,193650  	25,768981  	23,046632  	19,445878  	73,089226  	0,062711  	0,031776  	-7196,808682  	-4419,983242  	-0,012269  	-0,049992  	0,290624  	0,147262  	-3,324504  	4726,885832  	1057,436914  	0,153368  	-0,047944  
30,593000  	9,919572  	64,016590  	1256,818530  	357,439972  	80,246005  	74,870748  	0,004006  	0,006206  	0,003964  	0,004076  	0,004294  	0,000002  	-0,000000  	24,993753  	19,676167  	21,561695  	32,444471  	47,333177  	45,189624  	46,961210  	52,668629  	63,370735  	61,929618  	64,420848  	71,188628  	25,769083  	23,030651  	19,454955  	73,091097  	0,068316  	0,034616  	-7840,403357  	-16225,613466  	-0,015667  	-0,049970  	0,258790  	0,131131  	-2,955544  	4732,991800  	1059,138637  	0,153615  	-0,047926  
31,595000  	9,919296  	64,015751  	357,499067  	357,439972  	80,246286  	74,869313  	0,004007  	0,006184  	0,003962  	0,004023  	0,004265  	0,000000  	-0,000000  	24,993260  	19,664771  	21,564349  	32,438221  	47,338864  	45,190336  	46,956927  	52,661156  	63,366555  	61,918196  	64,426226  	71,189997  	25,762720  	23,025687  	19,446916  	73,095527  	0,024908  	0,012621  	-2858,572797  	-1,685119  	-0,026850  	-0,049996  	0,236419  	0,119795  	-2,700916  	4686,505514  	1067,421300  	0,154816  	-0,047948  
32,593000  	9,919908  	64,025699  	-242,047242  	956,927186  	80,244787  	74,866568  	0,004005  	0,006195  	0,003962  	0,004044  	0,004210  	-0,000001  	-0,000000  	24,994491  	19,674314  	21,568576  	32,441379  	47,340680  	45,189915  	46,950970  	52,662857  	63,368212  	61,924267  	64,434856  	71,195715  	25,767724  	23,017875  	19,460848  	73,095373  	0,042194  	0,021380  	-4843,295885  	34201,152444  	-0,026859  	-0,050013  	0,192409  	0,097495  	-2,198636  	4708,168930  	1028,542920  	0,149178  	-0,047962  
33,595000  	9,918899  	64,031792  	1256,818530  	57,696365  	80,242256  	74,871154  	0,004004  	0,006206  	0,003961  	0,003965  	0,004246  	0,000001  	-0,000000  	24,991344  	19,664153  	21,563098  	32,445980  	47,341522  	45,182757  	46,953909  	52,664886  	63,366258  	61,926861  	64,424949  	71,189877  	25,758917  	23,000755  	19,446605  	73,091880  	-0,021582  	-0,010936  	2477,684129  	-24488,448764  	-0,018196  	-0,049989  	0,220892  	0,111928  	-2,520781  	4732,200875  	1002,141492  	0,145348  	-0,047942  
34,594000  	9,917859  	64,030984  	1256,818530  	1256,670793  	80,238569  	74,876831  	0,004010  	0,006186  	0,003961  	0,004010  	0,004224  	-0,000001  	-0,000000  	24,982972  	19,664028  	21,566321  	32,440045  	47,344237  	45,184320  	46,949553  	52,664509  	63,357920  	61,928047  	64,418375  	71,191852  	25,761671  	22,995307  	19,446426  	73,084134  	0,015067  	0,007634  	-1729,663597  	-1,993802  	-0,011070  	-0,050007  	0,203335  	0,103031  	-2,316374  	4690,223851  	1149,838381  	0,166770  	-0,047957  
35,594000  	9,918501  	64,039284  	1256,818530  	1256,670793  	80,235413  	74,882383  	0,004004  	0,006182  	0,003961  	0,003895  	0,004320  	-0,000000  	-0,000000  	24,984876  	19,662790  	21,569934  	32,439966  	47,344911  	45,188591  	46,949222  	52,659016  	63,366434  	61,926777  	64,419672  	71,191491  	25,757713  	22,984037  	19,443511  	73,089099  	-0,078111  	-0,039579  	8968,504171  	-1,993581  	-0,011068  	-0,050001  	0,279433  	0,141591  	-3,178113  	4681,029174  	1007,507923  	0,146127  	-0,047952  
36,595000  	9,917400  	64,045750  	1256,818530  	1256,670793  	80,233913  	74,895921  	0,004006  	0,006203  	0,003961  	0,004040  	0,004245  	0,000000  	-0,000000  	24,988950  	19,665103  	21,570312  	32,433817  	47,347306  	45,185923  	46,952203  	52,655202  	63,360702  	61,922622  	64,416082  	71,189696  	25,746201  	22,970870  	19,440985  	73,092674  	0,039051  	0,019787  	-4484,366997  	-1,993527  	-0,011068  	-0,049999  	0,220495  	0,111726  	-2,500742  	4726,921912  	1051,547962  	0,152514  	-0,047951  
37,595000  	9,918593  	64,045191  	957,045375  	57,696365  	80,233289  	74,892146  	0,004008  	0,006184  	0,003965  	0,004031  	0,004247  	0,000001  	-0,000000  	24,999910  	19,670304  	21,576073  	32,437487  	47,351580  	45,193560  	46,955515  	52,664300  	63,365881  	61,928664  	64,419666  	71,191288  	25,760813  	22,972680  	19,448057  	73,098911  	0,031819  	0,016123  	-3653,827748  	-21302,507481  	-0,021691  	-0,049989  	0,221571  	0,112272  	-2,514429  	4686,267812  	1091,104207  	0,158251  	-0,047942  
38,596000  	9,918593  	64,054641  	357,499067  	1256,670793  	80,230976  	74,886781  	0,004006  	0,006193  	0,003963  	0,004005  	0,004232  	0,000000  	-0,000000  	25,002752  	19,668357  	21,572250  	32,448581  	47,353704  	45,200500  	46,962608  	52,671230  	63,377242  	61,933930  	64,429287  	71,196366  	25,769695  	22,967886  	19,454319  	73,106263  	0,010542  	0,005342  	-1210,726168  	16230,859445  	-0,015675  	-0,049999  	0,209717  	0,106265  	-2,381261  	4705,005231  	1055,692824  	0,153115  	-0,047951  
