06/29/2020 14:22:24
Tempo T_f_e T_f_s AR AR T_q_e T_q_s Corrente_P_f Corrente_P_q Corrente_P_RESERVA Corrente_eletromag_f Corrente_eletromag_q AR AR T_1 T_2 T_3 T_4 T_5 T_6 T_7 T_8 T_9 T_10 T_11 T_12 T_13 T_14 T_15 T_16 Velocidade_f_(m/s) Vazao_f_(L/s) q_f_(W) AR AR AR Velocidade_q_(m/s) Vazao_q_(L/s) q_q_(W) DeltaP_q_(Pa) DeltaP_f_(Pa) DeltaP_f_(Psi) AR
0,008000  	14,111114  	42,077988  	57,725912  	1256,670793  	79,906144  	73,696468  	0,004292  	0,008539  	0,003962  	0,004111  	0,004381  	-0,000000  	-0,000000  	22,478777  	18,385678  	20,003668  	23,155740  	32,166257  	29,675912  	31,630209  	33,658271  	42,883021  	40,521976  	44,824151  	67,597020  	23,839289  	22,326105  	22,525161  	72,424506  	0,096295  	0,048793  	-5710,139173  	24492,582024  	-0,018202  	-0,050003  	0,328402  	0,166404  	-4,331947  	9762,940231  	7221,813742  	1,047436  	-0,047954  
2,548000  	14,109399  	42,078606  	1256,818530  	657,183579  	79,898271  	73,692789  	0,004300  	0,008526  	0,003964  	0,004055  	0,004344  	0,000002  	-0,000000  	22,484825  	18,391747  	20,014878  	23,153169  	32,172724  	29,689636  	31,644128  	33,664070  	42,887248  	40,530359  	44,828284  	67,598740  	23,842836  	22,308348  	22,537588  	72,423002  	0,051543  	0,026117  	-3056,687557  	-9722,581659  	-0,013760  	-0,049979  	0,299000  	0,151505  	-3,941431  	9735,454534  	7397,183056  	1,072871  	-0,047934  
3,551000  	14,111512  	42,075363  	1256,818530  	-242,047242  	79,898208  	73,683840  	0,004295  	0,008514  	0,003962  	0,004015  	0,004381  	0,000000  	-0,000000  	22,482304  	18,399461  	20,007524  	23,160778  	32,186336  	29,696115  	31,644910  	33,681214  	42,894586  	40,544367  	44,819193  	67,593776  	23,851386  	22,297303  	22,536310  	72,431701  	0,019187  	0,009722  	-1137,635912  	-35509,279537  	-0,021694  	-0,049999  	0,328227  	0,166315  	-4,332901  	9709,855595  	7283,160521  	1,056333  	-0,047951  
4,548000  	14,110103  	42,071348  	57,725912  	-242,047242  	79,897146  	73,690824  	0,004297  	0,008532  	0,003964  	0,004088  	0,004352  	-0,000000  	-0,000000  	22,496870  	18,395984  	20,017324  	23,169461  	32,180925  	29,688704  	31,639842  	33,663035  	42,894490  	40,539634  	44,830808  	67,585910  	23,854210  	22,286295  	22,547608  	72,430947  	0,077666  	0,039354  	-4604,566133  	-27700,182064  	-0,093561  	-0,050001  	0,305008  	0,154550  	-4,021181  	9749,344531  	7324,764483  	1,062367  	-0,047952  
5,549000  	14,108204  	42,067920  	57,725912  	-242,047242  	79,896490  	73,699212  	0,004297  	0,008531  	0,003965  	0,004023  	0,004373  	0,000001  	-0,000000  	22,488927  	18,399649  	20,010190  	23,165507  	32,179644  	29,686793  	31,631196  	33,663815  	42,884862  	40,539781  	44,835395  	67,593400  	23,843674  	22,277769  	22,537170  	72,423635  	0,024957  	0,012646  	-1479,517550  	-27695,143397  	-0,093544  	-0,049990  	0,321414  	0,162863  	-4,231297  	9745,868848  	7333,682644  	1,063661  	-0,047943  
6,550000  	14,109185  	42,064708  	1256,818530  	-242,047242  	79,903551  	73,701457  	0,004298  	0,008527  	0,003961  	0,004038  	0,004374  	0,000000  	-0,000000  	22,490934  	18,396207  	20,008458  	23,163891  	32,181670  	29,694739  	31,642171  	33,675356  	42,895110  	40,543866  	44,828724  	67,595405  	23,862698  	22,290309  	22,544159  	72,429291  	0,037340  	0,018921  	-2213,338687  	-35509,497967  	-0,021694  	-0,050000  	0,322562  	0,163445  	-4,249716  	9738,286441  	7357,690361  	1,067143  	-0,047951  
7,548000  	14,107531  	42,069063  	357,499067  	657,183579  	79,913236  	73,688143  	0,004290  	0,008534  	0,003963  	0,004072  	0,004327  	0,000000  	-0,000000  	22,490864  	18,401148  	20,003882  	23,161295  	32,180306  	29,682812  	31,636244  	33,664019  	42,892289  	40,546250  	44,826574  	67,594480  	23,866390  	22,292378  	22,539626  	72,421689  	0,064934  	0,032903  	-3849,763845  	7100,003454  	-0,021695  	-0,049999  	0,285544  	0,144687  	-3,775948  	9752,450220  	7169,999440  	1,039920  	-0,047950  
8,549000  	14,101160  	42,071843  	-242,047242  	1256,670793  	79,918359  	73,677229  	0,004299  	0,008510  	0,003962  	0,004021  	0,004382  	0,000000  	-0,000000  	22,488120  	18,403293  	20,008000  	23,163905  	32,177780  	29,681464  	31,635943  	33,663913  	42,885104  	40,534631  	44,832282  	67,597165  	23,860348  	22,300867  	22,545061  	72,423031  	0,024033  	0,012178  	-1425,345289  	35508,801581  	-0,021696  	-0,050000  	0,329113  	0,166764  	-4,363296  	9700,931162  	7365,747068  	1,068311  	-0,047951  
9,579000  	14,095463  	42,066932  	1256,818530  	57,696365  	79,917484  	73,683964  	0,004298  	0,008519  	0,003962  	0,004042  	0,004387  	-0,000000  	-0,000000  	22,496621  	18,402610  	20,004702  	23,166217  	32,183005  	29,690468  	31,643648  	33,664719  	42,887093  	40,534787  	44,835267  	67,596614  	23,873218  	22,308538  	22,547026  	72,431350  	0,040813  	0,020680  	-2420,563884  	-24493,747187  	-0,018200  	-0,050001  	0,332826  	0,168645  	-4,407149  	9720,957547  	7340,503660  	1,064650  	-0,047952  
10,547000  	14,101773  	42,067488  	1256,818530  	1256,670793  	79,917672  	73,702736  	0,004292  	0,008542  	0,003962  	0,004064  	0,004333  	-0,000000  	-0,000000  	22,494199  	18,395503  	20,007501  	23,161245  	32,189512  	29,690267  	31,646748  	33,674438  	42,890924  	40,542335  	44,828105  	67,592687  	23,874858  	22,312179  	22,550887  	72,429216  	0,058778  	0,029783  	-3485,329246  	-1,993649  	-0,011069  	-0,050003  	0,289665  	0,146775  	-3,824206  	9770,976112  	7215,875363  	1,046574  	-0,047954  
11,548000  	14,108848  	42,067766  	357,499067  	1256,670793  	79,921983  	73,696219  	0,004301  	0,008519  	0,003963  	0,004058  	0,004406  	0,000000  	-0,000000  	22,490510  	18,390075  	20,004621  	23,152301  	32,185206  	29,686465  	31,638909  	33,668135  	42,885679  	40,543328  	44,816735  	67,582121  	23,865903  	22,318443  	22,545195  	72,424833  	0,053260  	0,026987  	-3157,354646  	16230,801204  	-0,015675  	-0,049999  	0,347776  	0,176221  	-4,599389  	9720,845771  	7419,376072  	1,076090  	-0,047951  
12,548000  	14,115831  	42,063689  	957,045375  	1256,670793  	79,919859  	73,686490  	0,004292  	0,008543  	0,003963  	0,004046  	0,004349  	0,000001  	-0,000000  	22,486224  	18,388984  	20,004956  	23,155999  	32,179783  	29,683713  	31,632293  	33,659223  	42,883738  	40,533981  	44,812470  	67,587902  	23,862609  	22,324966  	22,541582  	72,420119  	0,044230  	0,022412  	-2620,993375  	4415,896327  	-0,012268  	-0,049989  	0,302554  	0,153306  	-4,006202  	9773,458541  	7228,380559  	1,048388  	-0,047942  
13,547000  	14,119292  	42,062948  	57,725912  	1256,670793  	79,919640  	73,703827  	0,004298  	0,008512  	0,003962  	0,004062  	0,004373  	-0,000000  	-0,000000  	22,482490  	18,391000  	20,009183  	23,165861  	32,183899  	29,684634  	31,638182  	33,666152  	42,886145  	40,532309  	44,815868  	67,594673  	23,870016  	22,339505  	22,544865  	72,424783  	0,056898  	0,028831  	-3371,171945  	24491,550777  	-0,018201  	-0,050001  	0,321374  	0,162843  	-4,243434  	9706,533428  	7354,978901  	1,066750  	-0,047952  
14,549000  	14,116535  	42,063380  	1256,818530  	657,183579  	79,920202  	73,693475  	0,004295  	0,008526  	0,003963  	0,004062  	0,004373  	0,000001  	-0,000000  	22,489714  	18,399362  	20,013214  	23,160455  	32,183157  	29,683653  	31,639843  	33,669364  	42,885846  	40,537247  	44,819436  	67,595190  	23,879083  	22,360903  	22,547729  	72,430348  	0,056736  	0,028749  	-3361,954525  	-9725,057428  	-0,013764  	-0,049993  	0,321432  	0,162872  	-4,251637  	9735,554284  	7284,784573  	1,056569  	-0,047946  
15,549000  	14,121130  	42,063195  	357,499067  	657,183579  	79,918890  	73,689764  	0,004296  	0,008510  	0,003962  	0,004050  	0,004380  	0,000000  	-0,000000  	22,493843  	18,401195  	20,014594  	23,150547  	32,180874  	29,682675  	31,635246  	33,663516  	42,888023  	40,538984  	44,816150  	67,594137  	23,882245  	22,378228  	22,549314  	72,430074  	0,047400  	0,024018  	-2808,277912  	7100,108483  	-0,021696  	-0,050000  	0,327573  	0,165983  	-4,334530  	9700,561875  	7301,413447  	1,058980  	-0,047951  
16,548000  	14,127684  	42,064492  	957,045375  	1256,670793  	79,918328  	73,700054  	0,004294  	0,008519  	0,003964  	0,004063  	0,004380  	0,000000  	-0,000000  	22,492347  	18,396001  	20,012631  	23,158904  	32,183002  	29,685764  	31,634863  	33,666208  	42,889169  	40,540368  	44,812349  	67,592207  	23,877688  	22,391144  	22,549411  	72,428736  	0,057512  	0,029142  	-3406,679964  	4416,724004  	-0,012270  	-0,050000  	0,327101  	0,165744  	-4,320755  	9720,370367  	7251,985794  	1,051812  	-0,047951  
17,550000  	14,130655  	42,063566  	957,045375  	-242,047242  	79,911455  	73,707693  	0,004298  	0,008537  	0,003963  	0,004092  	0,004360  	0,000001  	-0,000000  	22,494637  	18,398772  	20,011838  	23,167816  	32,181172  	29,687156  	31,633915  	33,674319  	42,887003  	40,540598  	44,813476  	67,593213  	23,872436  	22,401449  	22,548785  	72,425230  	0,081156  	0,041123  	-4806,601626  	-34188,605798  	-0,026847  	-0,049991  	0,311674  	0,157927  	-4,107371  	9759,146905  	7344,196612  	1,065186  	-0,047944  
18,549000  	14,131145  	42,065172  	-242,047242  	357,439972  	79,905644  	73,693724  	0,004296  	0,008528  	0,003963  	0,004084  	0,004359  	0,000000  	-0,000000  	22,488054  	18,400629  	20,010485  	23,164101  	32,186653  	29,690758  	31,640150  	33,673862  	42,893520  	40,541017  	44,812556  	67,588076  	23,875858  	22,417674  	22,548957  	72,430050  	0,074749  	0,037876  	-4427,309002  	30939,643442  	-0,051177  	-0,049995  	0,310614  	0,157390  	-4,098778  	9740,902577  	7293,469717  	1,057828  	-0,047947  
19,551000  	14,129675  	42,064060  	657,272221  	1256,670793  	79,900926  	73,697123  	0,004294  	0,008534  	0,003963  	0,004080  	0,004371  	0,000000  	-0,000000  	22,488447  	18,401487  	20,014773  	23,167194  	32,186348  	29,691626  	31,646197  	33,670592  	42,895822  	40,541960  	44,816921  	67,592391  	23,871431  	22,444757  	22,552125  	72,431918  	0,071624  	0,036292  	-4242,248320  	9721,513941  	-0,013764  	-0,049994  	0,319866  	0,162079  	-4,215359  	9753,709474  	7259,371698  	1,052883  	-0,047946  
20,549000  	14,127347  	42,063195  	1256,818530  	1256,670793  	79,899989  	73,699368  	0,004301  	0,008502  	0,003962  	0,004092  	0,004347  	0,000000  	-0,000000  	22,494643  	18,402527  	20,014203  	23,157698  	32,174237  	29,687033  	31,634131  	33,670249  	42,887204  	40,541455  	44,821082  	67,592634  	23,858493  	22,453775  	22,556094  	72,421635  	0,080793  	0,040938  	-4785,596733  	-1,993518  	-0,011068  	-0,049999  	0,301220  	0,152630  	-3,967588  	9683,799646  	7405,324496  	1,074052  	-0,047950  
21,547000  	14,126153  	42,063072  	1256,818530  	1256,670793  	79,897396  	73,686459  	0,004292  	0,008534  	0,003963  	0,004057  	0,004373  	-0,000000  	-0,000001  	22,489630  	18,408585  	20,012205  	23,156445  	32,178090  	29,690918  	31,632948  	33,662904  	42,890248  	40,536629  	44,815506  	67,583862  	23,848303  	22,450036  	22,546391  	72,434092  	0,053011  	0,026861  	-3140,086289  	-1,993604  	-0,011069  	-0,050001  	0,321290  	0,162800  	-4,238976  	9754,232277  	7213,340430  	1,046207  	-0,047953  
22,552000  	14,126214  	42,063133  	1256,818530  	657,183579  	79,894897  	73,688766  	0,004298  	0,008529  	0,003964  	0,004059  	0,004383  	0,000001  	-0,000000  	22,486192  	18,396710  	20,012629  	23,144669  	32,175907  	29,690002  	31,640945  	33,668997  	42,891935  	40,540902  	44,811776  	67,582325  	23,844169  	22,458437  	22,538442  	72,467214  	0,054725  	0,027730  	-3241,655701  	-9723,333791  	-0,013761  	-0,049983  	0,329785  	0,167105  	-4,347701  	9742,780846  	7357,916316  	1,067176  	-0,047937  
23,548000  	14,128052  	42,065542  	1256,818530  	657,183579  	79,900926  	73,699649  	0,004295  	0,008516  	0,003960  	0,004105  	0,004336  	-0,000001  	-0,000000  	22,496427  	18,407036  	20,011931  	23,157086  	32,181402  	29,691819  	31,638358  	33,672507  	42,897867  	40,547364  	44,809827  	67,585102  	23,849525  	22,477310  	22,558119  	72,467411  	0,091350  	0,046288  	-5411,248666  	-9727,818097  	-0,013768  	-0,050009  	0,292403  	0,148163  	-3,851866  	9714,833186  	7283,640675  	1,056403  	-0,047959  
24,551000  	14,127745  	42,066222  	57,725912  	1256,670793  	79,910236  	73,692227  	0,004297  	0,008513  	0,003962  	0,004072  	0,004357  	-0,000000  	-0,000000  	22,496715  	18,402908  	20,013030  	23,161399  	32,180399  	29,690433  	31,637084  	33,675203  	42,897800  	40,543587  	44,819714  	67,594641  	23,825928  	22,497904  	22,565803  	72,452471  	0,064869  	0,032870  	-3842,739982  	24492,797241  	-0,018202  	-0,050004  	0,308710  	0,156426  	-4,077649  	9706,933135  	7321,996534  	1,061966  	-0,047955  
25,549000  	14,121467  	42,065172  	57,725912  	1256,670793  	79,915641  	73,689702  	0,004295  	0,008525  	0,003964  	0,004064  	0,004381  	0,000000  	-0,000000  	22,489469  	18,389977  	20,009686  	23,153563  	32,183928  	29,685009  	31,646734  	33,661267  	42,886410  	40,542197  	44,814603  	67,586992  	23,812563  	22,491745  	22,556510  	72,427892  	0,058574  	0,029680  	-3470,504338  	24490,316867  	-0,018201  	-0,049998  	0,327933  	0,166166  	-4,337077  	9732,922584  	7285,836675  	1,056721  	-0,047950  
26,549000  	14,115096  	42,067519  	1256,818530  	1256,670793  	79,918640  	73,690575  	0,004297  	0,008524  	0,003962  	0,004056  	0,004334  	-0,000000  	-0,000000  	22,494175  	18,407393  	20,006420  	23,164723  	32,198073  	29,691667  	31,650519  	33,680664  	42,893885  	40,544230  	44,816178  	67,590483  	23,827468  	22,491133  	22,562333  	72,420210  	0,051977  	0,026337  	-3080,580447  	-1,993774  	-0,011070  	-0,050006  	0,290598  	0,147248  	-3,844622  	9731,861415  	7315,408534  	1,061010  	-0,047957  
27,549000  	14,109675  	42,068816  	1256,818530  	357,439972  	79,916235  	73,689140  	0,004295  	0,008518  	0,003960  	0,004049  	0,004342  	0,000000  	-0,000000  	22,513164  	18,414153  	20,005399  	23,165553  	32,185151  	29,685728  	31,641154  	33,677368  	42,893793  	40,551868  	44,822556  	67,589621  	23,824501  	22,500184  	22,568841  	72,460523  	0,046274  	0,023447  	-2743,218044  	-16233,753360  	-0,015675  	-0,049998  	0,297132  	0,150559  	-3,930455  	9719,050273  	7281,790669  	1,056134  	-0,047950  
28,550000  	14,105938  	42,064616  	57,725912  	956,927186  	79,914798  	73,701738  	0,004292  	0,008537  	0,003963  	0,004047  	0,004354  	-0,000000  	-0,000000  	22,493302  	18,406471  	20,012116  	23,164489  	32,181897  	29,693335  	31,640165  	33,670165  	42,895362  	40,538161  	44,825592  	67,594987  	23,828483  	22,489522  	22,562841  	72,436670  	0,044494  	0,022545  	-2637,650638  	21306,190829  	-0,021698  	-0,050005  	0,306794  	0,155455  	-4,049119  	9760,006452  	7227,088379  	1,048201  	-0,047956  
29,548000  	14,113013  	42,069990  	1256,818530  	1256,670793  	79,912923  	73,701270  	0,004299  	0,008522  	0,003964  	0,004058  	0,004324  	0,000000  	-0,000000  	22,484285  	18,408390  	20,022840  	23,162532  	32,196094  	29,681503  	31,646343  	33,667550  	42,897306  	40,538427  	44,823444  	67,591933  	23,817621  	22,481653  	22,564524  	72,437135  	0,053793  	0,027257  	-3188,710026  	-1,993558  	-0,011068  	-0,050000  	0,282658  	0,143225  	-3,729728  	9728,220897  	7369,214065  	1,068814  	-0,047951  
30,549000  	14,120915  	42,071843  	1256,818530  	657,183579  	79,910486  	73,698339  	0,004294  	0,008529  	0,003961  	0,004060  	0,004351  	0,000001  	-0,000000  	22,499940  	18,400104  	20,012016  	23,162458  	32,194004  	29,690643  	31,639513  	33,676701  	42,893567  	40,535990  	44,811105  	67,591077  	23,833954  	22,456819  	22,561661  	72,433541  	0,054955  	0,027846  	-3256,871383  	-9724,422816  	-0,013763  	-0,049990  	0,304613  	0,154350  	-4,019746  	9742,824000  	7251,435029  	1,051732  	-0,047943  
31,549000  	14,122477  	42,069156  	1256,818530  	-242,047242  	79,916141  	73,694597  	0,004296  	0,008530  	0,003962  	0,004067  	0,004350  	-0,000000  	-0,000000  	22,497232  	18,406266  	20,021987  	23,160230  	32,182860  	29,692140  	31,648434  	33,670185  	42,898840  	40,545283  	44,818148  	67,595646  	23,841880  	22,449580  	22,565463  	72,429971  	0,060647  	0,030730  	-3593,683817  	-35512,459771  	-0,021696  	-0,050004  	0,303468  	0,153769  	-4,010688  	9743,931861  	7295,637473  	1,058143  	-0,047955  
32,549000  	14,120027  	42,068229  	1256,818530  	956,927186  	79,914954  	73,690232  	0,004293  	0,008528  	0,003963  	0,004055  	0,004340  	0,000001  	-0,000000  	22,490785  	18,404362  	20,016313  	23,161189  	32,186047  	29,680629  	31,640282  	33,668791  	42,884424  	40,544117  	44,816887  	67,590781  	23,821679  	22,420698  	22,568836  	72,422388  	0,051184  	0,025935  	-3033,086723  	-4419,809728  	-0,012268  	-0,049989  	0,295614  	0,149790  	-3,908882  	9740,357136  	7246,167453  	1,050968  	-0,047942  
33,549000  	14,121068  	42,069742  	957,045375  	57,696365  	79,914923  	73,701364  	0,004298  	0,008525  	0,003963  	0,004072  	0,004349  	-0,000000  	-0,000000  	22,494427  	18,412629  	20,019547  	23,169359  	32,197722  	29,693553  	31,647625  	33,683863  	42,896850  	40,548992  	44,825174  	67,597574  	23,829940  	22,394050  	22,577273  	72,436176  	0,065109  	0,032991  	-3858,378321  	-21306,943383  	-0,021695  	-0,050000  	0,302715  	0,153388  	-3,995606  	9733,427701  	7352,789962  	1,066432  	-0,047952  
34,551000  	14,121375  	42,071966  	357,499067  	657,183579  	79,923233  	73,696873  	0,004293  	0,008512  	0,003964  	0,004083  	0,004338  	0,000000  	-0,000000  	22,496059  	18,414712  	20,020382  	23,166531  	32,191124  	29,693961  	31,646162  	33,679581  	42,899247  	40,546537  	44,819163  	67,599318  	23,835674  	22,370159  	22,572860  	72,435073  	0,074074  	0,037534  	-4389,931184  	7099,960819  	-0,021695  	-0,049998  	0,293867  	0,148905  	-3,886810  	9706,804380  	7231,219119  	1,048800  	-0,047950  
35,549000  	14,127072  	42,072244  	357,499067  	657,183579  	79,924076  	73,691697  	0,004297  	0,008537  	0,003962  	0,004053  	0,004374  	0,000000  	-0,000000  	22,494437  	18,411971  	20,019194  	23,159829  	32,181904  	29,691487  	31,644784  	33,671938  	42,897783  	40,544652  	44,817019  	67,585654  	23,845883  	22,350141  	22,571042  	72,432803  	0,049850  	0,025259  	-2953,745865  	7099,392002  	-0,021693  	-0,049994  	0,322353  	0,163339  	-4,267693  	9759,351357  	7316,291171  	1,061138  	-0,047946  
36,552000  	14,137914  	42,071565  	-242,047242  	57,696365  	79,928200  	73,697435  	0,004296  	0,008536  	0,003960  	0,004067  	0,004363  	-0,000000  	-0,000000  	22,497852  	18,412502  	20,020673  	23,168254  	32,189011  	29,693555  	31,645602  	33,670983  	42,897417  	40,547995  	44,821946  	67,591097  	23,846545  	22,335637  	22,573776  	72,436094  	0,060840  	0,030828  	-3603,457384  	27701,378633  	-0,093575  	-0,050004  	0,313872  	0,159041  	-4,154339  	9757,267221  	7306,758695  	1,059756  	-0,047955  
37,551000  	14,144530  	42,071843  	1256,818530  	1256,670793  	79,928919  	73,697778  	0,004292  	0,008527  	0,003964  	0,004042  	0,004359  	0,000000  	-0,000000  	22,503291  	18,422943  	20,028457  	23,172746  	32,202180  	29,699207  	31,654516  	33,677215  	42,903489  	40,555853  	44,831435  	67,600905  	23,845188  	22,329561  	22,581599  	72,445171  	0,040875  	0,020712  	-2420,378303  	-1,993443  	-0,011068  	-0,049997  	0,310351  	0,157257  	-4,107981  	9738,014074  	7223,557832  	1,047688  	-0,047949  
